Time (s)	Motor Command (V)	Desired Position  (V)	Actual Position (V)
0.006	7.786	2.040	1.964
0.058	7.786	2.040	1.962
0.110	7.786	2.040	1.962
0.160	7.786	2.040	1.962
0.210	7.786	2.040	1.962
0.261	7.786	2.040	1.962
0.311	7.786	2.040	1.963
0.361	7.786	2.040	1.963
0.412	7.786	2.040	1.963
0.462	7.786	2.040	1.963
0.512	7.786	2.040	1.963
0.563	7.786	2.040	1.963
0.613	7.786	2.040	1.963
0.664	7.786	2.040	1.962
0.714	7.786	2.040	1.962
0.764	7.786	2.040	1.963
0.815	7.786	2.040	1.963
0.864	7.786	2.040	1.963
0.915	7.786	2.040	1.962
0.965	7.786	2.040	1.963
1.016	7.786	2.040	1.963
1.066	7.786	2.040	1.964
1.116	7.786	2.040	1.962
1.166	7.786	2.040	1.963
1.217	7.786	2.040	1.962
1.266	7.786	2.040	1.962
1.316	7.786	2.040	1.962
1.366	7.786	2.040	1.962
1.416	7.786	2.040	1.962
1.466	7.786	2.040	1.963
1.517	7.786	2.040	1.963
1.568	7.786	2.040	1.962
1.619	7.786	2.040	1.963
1.668	7.786	2.040	1.964
1.719	7.786	2.040	1.964
1.769	7.786	2.040	1.964
1.820	7.786	2.040	1.963
1.871	7.786	2.040	1.964
1.920	7.786	2.040	1.963
1.971	7.786	2.040	1.963
2.022	7.786	2.040	1.963
2.072	7.786	2.040	1.963
2.122	7.786	2.040	1.963
2.172	7.786	2.040	1.963
2.223	7.786	2.040	1.964
2.275	7.786	2.040	1.963
2.325	7.786	2.040	1.963
2.375	7.786	2.040	1.963
2.425	7.786	2.040	1.964
2.475	7.786	2.040	1.963
2.526	7.786	2.040	1.964
2.576	7.786	2.040	1.964
2.627	7.786	2.040	1.962
2.677	7.786	2.040	1.964
2.727	7.786	2.040	1.964
2.777	7.786	2.040	1.963
2.827	7.786	2.040	1.964
2.878	7.786	2.040	1.963
2.928	7.786	2.040	1.963
2.978	7.786	2.040	1.963
3.029	7.786	2.040	1.962
3.079	7.786	2.040	1.964
3.130	7.786	2.040	1.964
3.180	7.786	2.040	1.963
3.230	7.786	2.040	1.964
3.280	7.786	2.040	1.964
3.331	7.786	2.040	1.964
3.381	7.786	2.040	1.963
3.432	7.786	2.040	1.963
3.482	7.786	2.040	1.963
3.532	7.786	2.040	1.963
3.582	7.786	2.040	1.963
3.632	7.786	2.040	1.963
3.682	7.786	2.040	1.962
3.733	7.786	2.040	1.963
3.783	7.786	2.040	1.963
3.834	7.786	2.040	1.964
3.885	7.786	2.040	1.963
3.935	7.786	2.040	1.964
3.985	7.786	2.040	1.963
4.035	7.786	2.040	1.963
4.086	7.786	2.040	1.962
4.136	7.786	2.040	1.963
4.185	7.786	2.040	1.964
4.236	7.786	2.040	1.963
4.285	7.786	2.040	1.963
4.336	7.786	2.040	1.964
4.386	7.786	2.040	1.964
4.437	7.786	2.040	1.963
4.487	7.786	2.040	1.964
4.537	7.786	2.040	1.963
4.587	7.786	2.040	1.964
4.638	7.786	2.040	1.963
4.688	7.786	2.040	1.963
4.739	7.786	2.040	1.964
4.789	7.786	2.040	1.963
4.840	7.786	2.040	1.963
4.890	7.786	2.040	1.964
4.941	7.786	2.040	1.964
4.991	7.786	2.040	1.963
5.042	7.786	2.040	1.964
5.092	7.786	2.040	1.962
5.143	7.786	2.040	1.963
5.193	7.786	2.040	1.964
5.244	7.786	2.040	1.964
5.294	7.786	2.040	1.964
5.344	7.786	2.040	1.964
5.394	7.786	2.040	1.963
5.444	7.786	2.040	1.964
5.494	7.786	2.040	1.963
5.545	7.786	2.040	1.963
5.595	7.786	2.040	1.963
5.645	7.786	2.040	1.963
5.695	7.786	2.040	1.964
5.745	7.786	2.040	1.964
5.795	7.786	2.040	1.963
5.845	7.786	2.040	1.963
5.895	7.786	2.040	1.962
5.945	7.786	2.040	1.963
5.995	7.786	2.040	1.963
6.045	7.786	2.040	1.963
6.095	7.786	2.040	1.964
6.145	7.786	2.040	1.964
6.195	7.786	2.040	1.964
6.247	7.786	2.040	1.963
6.297	7.786	2.040	1.965
6.347	7.786	2.040	1.973
6.399	7.786	2.040	1.987
6.449	7.786	2.040	2.007
6.499	7.786	2.040	2.041
6.549	7.786	2.040	2.083
6.598	7.786	2.040	2.129
6.649	7.786	2.040	2.164
6.699	7.786	2.040	2.183
6.750	7.786	2.040	2.179
6.800	7.786	2.040	2.165
6.851	7.786	2.040	2.148
6.901	7.786	2.040	2.132
6.951	7.786	2.040	2.121
7.001	7.786	2.040	2.112
7.052	7.786	2.040	2.105
7.102	7.786	2.040	2.102
7.151	7.786	2.040	2.100
7.204	7.786	2.040	2.099
7.255	7.786	2.040	2.099
7.305	7.786	2.040	2.100
7.356	7.786	2.040	2.100
7.406	7.786	2.040	2.100
7.457	7.786	2.040	2.099
7.507	7.786	2.040	2.100
7.557	7.786	2.040	2.099
7.607	7.786	2.040	2.098
7.657	7.786	2.040	2.099
7.707	7.786	2.040	2.098
7.758	7.786	2.040	2.098
7.808	7.786	2.040	2.098
7.859	7.786	2.040	2.098
7.908	7.786	2.040	2.098
7.959	7.786	2.040	2.088
8.009	7.786	2.040	2.081
8.059	7.786	2.040	2.071
8.110	7.786	2.040	2.066
8.160	7.786	2.040	2.063
8.210	7.786	2.040	2.051
8.261	7.786	2.040	2.032
8.311	7.786	2.040	2.022
8.361	7.786	2.040	2.016
8.411	7.786	2.040	2.009
8.461	7.786	2.040	2.000
8.512	7.786	2.040	1.992
8.562	7.786	2.040	1.984
8.612	7.786	2.040	1.978
8.662	7.786	2.040	1.979
8.712	7.786	2.040	1.980
8.763	7.786	2.040	1.983
8.813	7.786	2.040	1.986
8.864	7.786	2.040	1.990
8.914	7.786	2.040	1.995
8.964	7.786	2.040	1.996
9.015	7.786	2.040	1.995
9.067	7.786	2.040	1.996
9.117	7.786	2.040	1.999
9.166	7.786	2.040	2.004
9.216	7.786	2.040	2.011
9.266	7.786	2.040	2.018
9.317	7.786	2.040	2.032
9.367	7.786	2.040	2.049
9.417	7.786	2.040	2.070
9.469	7.786	2.040	2.093
9.518	7.786	2.040	2.122
9.569	7.786	2.040	2.166
9.619	7.786	2.040	2.205
9.670	7.786	2.040	2.219
9.720	7.786	2.040	2.229
9.770	7.786	2.040	2.243
9.820	7.786	2.040	2.258
9.871	7.786	2.040	2.276
9.920	7.786	2.040	2.290
9.971	7.786	2.040	2.314
10.021	7.786	2.040	2.343
10.072	7.786	2.040	2.366
10.123	7.786	2.040	2.385
10.173	7.786	2.040	2.453
10.224	7.786	2.040	2.513
10.274	7.786	2.040	2.536
10.324	7.786	2.040	2.542
10.375	7.786	2.040	2.546
10.425	7.786	2.040	2.558
10.476	7.786	2.040	2.543
10.526	7.786	2.040	2.522
10.576	7.786	2.040	2.483
10.626	7.786	2.040	2.440
10.676	7.786	2.040	2.402
10.730	7.786	2.040	2.369
10.782	7.786	2.040	2.345
10.832	7.786	2.040	2.320
10.883	7.786	2.040	2.297
10.933	7.786	2.040	2.277
10.984	7.786	2.040	2.257
11.035	7.786	2.040	2.241
11.085	7.786	2.040	2.230
11.135	7.786	2.040	2.220
11.185	7.786	2.040	2.216
11.235	7.786	2.040	2.215
11.285	7.786	2.040	2.216
11.337	7.786	2.040	2.216
11.386	7.786	2.040	2.215
11.437	7.786	2.040	2.215
11.488	7.786	2.040	2.214
11.539	7.786	2.040	2.216
11.590	7.786	2.040	2.215
11.641	7.786	2.040	2.213
11.691	7.786	2.040	2.212
11.741	7.786	2.040	2.211
11.792	7.786	2.040	2.211
11.842	7.786	2.040	2.211
11.893	7.786	2.040	2.211
11.943	7.786	2.040	2.209
11.993	7.786	2.040	2.208
12.044	7.786	2.040	2.206
12.095	7.786	2.040	2.205
12.144	7.786	2.040	2.204
12.195	7.786	2.040	2.206
12.246	7.786	2.040	2.205
12.297	7.786	2.040	2.203
12.347	7.786	2.040	2.172
12.397	7.786	2.040	2.113
12.448	7.786	2.040	2.083
12.498	7.786	2.040	2.059
12.548	7.786	2.040	2.037
12.599	7.786	2.040	2.019
12.649	7.786	2.040	2.004
12.700	7.786	2.040	1.994
12.750	7.786	2.040	1.990
12.800	7.786	2.040	1.988
12.850	7.786	2.040	1.983
12.900	7.786	2.040	1.979
12.951	7.786	2.040	1.976
13.002	7.786	2.040	1.974
13.052	7.786	2.040	1.973
13.103	7.786	2.040	1.972
13.153	7.786	2.040	1.972
13.203	7.786	2.040	1.972
13.253	7.786	2.040	1.972
13.303	7.786	2.040	1.972
13.353	7.786	2.040	1.971
13.404	7.786	2.040	1.972
13.454	7.786	2.040	1.973
13.505	7.786	2.040	1.974
13.555	7.786	2.040	1.976
13.605	7.786	2.040	1.976
13.655	7.786	2.040	1.978
13.705	7.786	2.040	1.977
13.756	7.786	2.040	1.979
13.806	7.786	2.040	1.979
13.857	7.786	2.040	1.979
13.907	7.786	2.040	1.979
13.957	7.786	2.040	1.977
14.006	7.786	2.040	1.978
14.056	7.786	2.040	1.978
14.106	7.786	2.040	1.979
14.156	7.786	2.040	1.979
14.206	7.786	2.040	1.978
14.257	7.786	2.040	1.978
14.307	7.786	2.040	1.978
14.357	7.786	2.040	1.978
14.407	7.786	2.040	1.979
14.458	7.786	2.040	1.979
14.508	7.786	2.040	1.998
14.559	7.786	2.040	2.049
14.609	7.786	2.040	2.152
14.660	7.786	2.040	2.360
14.710	7.786	2.040	2.535
14.760	7.786	2.040	2.410
14.811	7.786	2.040	2.322
14.860	7.786	2.040	2.254
14.911	7.786	2.040	2.205
14.961	7.786	2.040	2.173
15.012	7.786	2.040	2.158
15.062	7.786	2.040	2.149
15.111	7.786	2.040	2.142
15.161	7.786	2.040	2.137
15.211	7.786	2.040	2.136
15.261	7.786	2.040	2.136
15.311	7.786	2.040	2.135
15.361	7.786	2.040	2.134
15.411	7.786	2.040	2.135
15.461	7.786	2.040	2.134
15.510	7.786	2.040	2.134
15.560	7.786	2.040	2.132
15.613	7.786	2.040	2.132
15.663	7.786	2.040	2.133
15.713	7.786	2.040	2.132
15.765	7.786	2.040	2.133
15.815	7.786	2.040	2.133
15.865	7.786	2.040	2.128
15.915	7.786	2.040	2.106
15.965	7.786	2.040	2.086
16.016	7.786	2.040	2.075
16.066	7.786	2.040	2.070
16.116	7.786	2.040	2.068
16.167	7.786	2.040	2.069
16.217	7.786	2.040	2.069
16.266	7.786	2.040	2.069
16.317	7.786	2.040	2.069
16.368	7.786	2.040	2.071
16.418	7.786	2.040	2.067
16.468	7.786	2.040	2.049
16.518	7.786	2.040	2.029
16.570	7.786	2.040	2.017
16.619	7.786	2.040	2.011
16.670	7.786	2.040	2.004
16.721	7.786	2.040	2.000
16.771	7.786	2.040	1.995
16.821	7.786	2.040	1.994
16.871	7.786	2.040	1.993
16.921	7.786	2.040	1.992
16.972	7.786	2.040	1.992
17.021	7.786	2.040	1.993
17.072	7.786	2.040	1.994
17.122	7.786	2.040	1.995
17.173	7.786	2.040	1.996
17.224	7.786	2.040	1.995
17.274	7.786	2.040	1.996
17.325	7.786	2.040	1.996
17.375	7.786	2.040	1.996
17.425	7.786	2.040	1.997
17.477	7.786	2.040	1.995
17.527	7.786	2.040	1.996
17.577	7.786	2.040	1.996
17.627	7.786	2.040	1.996
17.677	7.786	2.040	1.997
17.727	7.786	2.040	1.998
17.778	7.786	2.040	1.997
17.829	7.786	2.040	1.998
17.880	7.786	2.040	1.997
17.930	7.786	2.040	1.996
17.979	7.786	2.040	1.998
18.031	7.786	2.040	1.997
18.082	7.786	2.040	1.997
18.131	7.786	2.040	1.997
18.182	7.786	2.040	1.998
18.233	7.786	2.040	1.998
18.283	7.786	2.040	1.997
18.334	7.786	2.040	1.998
18.384	7.786	2.040	1.998
18.434	7.786	2.040	1.995
18.485	7.786	2.040	1.996
18.535	7.786	2.040	1.996
18.585	7.786	2.040	1.998
18.635	7.786	2.040	2.000
18.686	7.786	2.040	2.004
18.736	7.786	2.040	2.005
18.786	7.786	2.040	2.006
18.836	7.786	2.040	2.006
18.886	7.786	2.040	2.013
18.936	7.786	2.040	2.017
18.987	7.786	2.040	2.025
19.037	7.786	2.040	2.031
19.088	7.786	2.040	2.034
19.138	7.786	2.040	2.034
19.188	7.786	2.040	2.034
19.238	7.786	2.040	2.034
19.288	7.786	2.040	2.031
19.339	7.786	2.040	2.029
19.389	7.786	2.040	2.030
19.440	7.786	2.040	2.027
19.490	7.786	2.040	2.024
19.541	7.786	2.040	2.021
19.591	7.786	2.040	2.019
19.641	7.786	2.040	2.017
19.691	7.786	2.040	2.017
19.742	7.786	2.040	2.017
19.792	7.786	2.040	2.019
19.842	7.786	2.040	2.020
19.893	7.786	2.040	2.022
19.943	7.786	2.040	2.023
19.993	7.786	2.040	2.020
20.044	7.786	2.040	2.019
20.094	7.786	2.040	2.017
20.145	7.786	2.040	2.016
20.196	7.786	2.040	2.015
20.245	7.786	2.040	2.016
20.297	7.786	2.040	2.016
20.347	7.786	2.040	2.016
20.397	7.786	2.040	2.016
20.448	7.786	2.040	2.015
20.499	7.786	2.040	2.017
20.549	7.786	2.040	2.016
20.600	7.786	2.040	2.017
20.650	7.786	2.040	2.017
20.700	7.786	2.040	2.016
20.751	7.786	2.040	2.014
20.802	7.786	2.040	2.014
20.852	7.786	2.040	2.013
20.902	7.786	2.040	2.014
20.952	7.786	2.040	2.016
21.003	7.786	2.040	2.016
21.053	7.786	2.040	2.017
21.103	7.786	2.040	2.016
21.153	7.786	2.040	2.016
21.203	7.786	2.040	2.014
21.254	7.786	2.040	2.014
21.304	7.786	2.040	2.014
21.354	7.786	2.040	2.012
21.405	7.786	2.040	2.012
21.454	7.786	2.040	2.012
21.505	7.786	2.040	2.013
21.555	7.786	2.040	2.012
21.605	7.786	2.040	2.013
21.656	7.786	2.040	2.012
21.706	7.786	2.040	2.014
21.756	7.786	2.040	2.013
21.806	7.786	2.040	2.012
21.855	7.786	2.040	2.013
21.906	7.786	2.040	2.014
21.956	7.786	2.040	2.013
22.007	7.786	2.040	2.013
22.057	7.786	2.040	2.016
22.107	7.786	2.040	2.014
22.157	7.786	2.040	2.013
22.207	7.786	2.040	2.015
22.257	7.786	2.040	2.013
22.307	7.786	2.040	2.012
22.358	7.786	2.040	2.013
22.408	7.786	2.040	2.017
22.458	7.786	2.040	2.013
22.509	7.786	2.040	2.013
22.558	7.786	2.040	2.013
22.609	7.786	2.040	2.018
22.659	7.786	2.040	2.014
22.709	7.786	2.040	2.013
22.761	7.786	2.040	2.013
22.812	7.786	2.040	2.013
22.862	7.786	2.040	2.018
22.911	7.786	2.040	2.014
22.960	7.786	2.040	2.016
23.011	7.786	2.040	2.018
23.061	7.786	2.040	2.013
23.111	7.786	2.040	2.014
23.162	7.786	2.040	2.017
23.211	7.786	2.040	2.014
23.262	7.786	2.040	2.014
23.311	7.786	2.040	2.012
23.362	7.786	2.040	2.014
23.412	7.786	2.040	2.013
23.461	7.786	2.040	2.013
23.511	7.786	2.040	2.012
23.562	7.786	2.040	2.013
23.613	7.786	2.040	2.013
23.663	7.786	2.040	2.013
23.713	7.786	2.040	2.013
23.763	7.786	2.040	2.012
23.814	7.786	2.040	2.014
23.864	7.786	2.040	2.013
23.914	7.786	2.040	2.013
23.963	7.786	2.040	2.013
24.014	7.786	2.040	2.013
24.064	7.786	2.040	2.013
24.114	7.786	2.040	2.014
24.164	7.786	2.040	2.013
24.214	7.786	2.040	2.013
24.264	7.786	2.040	2.013
24.314	7.786	2.040	2.013
24.364	7.786	2.040	2.015
24.415	7.786	2.040	2.014
24.467	7.786	2.040	2.013
24.519	7.786	2.040	2.012
24.570	7.786	2.040	2.012
24.621	7.786	2.040	2.013
24.671	7.786	2.040	2.012
24.721	7.786	2.040	2.012
24.774	7.786	2.040	2.012
24.824	7.786	2.040	2.013
24.875	7.786	2.040	2.013
24.926	7.786	2.040	2.012
24.976	7.786	2.040	2.012
25.026	7.786	2.040	2.013
25.077	7.786	2.040	2.012
25.126	7.786	2.040	2.014
25.177	7.786	2.040	2.013
25.227	7.429	2.040	2.013
25.277	7.214	2.040	2.012
25.328	7.214	2.040	2.013
25.378	6.500	2.040	2.012
25.440	6.000	2.040	2.014
25.502	5.786	2.040	2.013
25.563	5.571	2.040	2.012
25.632	5.143	2.040	2.007
25.683	5.000	2.040	2.006
25.737	4.857	2.040	2.002
25.788	4.857	2.040	1.998
25.839	4.786	2.040	1.992
25.890	4.786	2.040	1.989
25.940	4.786	2.040	1.985
25.990	4.786	2.040	1.981
26.040	4.786	2.040	1.977
26.090	4.786	2.040	1.973
26.139	4.786	2.040	1.971
26.190	4.786	2.040	1.969
26.240	4.786	2.040	1.966
26.291	4.786	2.040	1.964
26.341	5.071	2.040	1.963
26.392	5.929	2.040	1.963
26.442	5.929	2.040	1.962
26.493	7.714	2.040	1.963
26.554	7.714	2.040	1.962
26.603	9.286	2.040	1.962
26.668	9.857	2.040	1.961
26.725	10.000	2.040	1.959
26.775	10.000	2.040	1.960
26.826	10.000	2.040	1.961
26.876	10.000	2.040	1.961
26.926	10.000	2.040	1.962
26.976	10.000	2.040	1.964
27.026	10.000	2.040	1.964
27.078	10.000	2.040	1.966
27.128	10.000	2.040	1.969
27.178	10.000	2.040	1.971
27.229	10.000	2.040	1.974
27.279	10.000	2.040	1.978
27.328	10.000	2.040	1.983
27.378	10.000	2.040	1.989
27.429	10.000	2.040	1.996
27.479	10.000	2.040	2.003
27.529	10.000	2.040	2.012
27.580	10.000	2.040	2.021
27.630	10.000	2.040	2.030
27.680	10.000	2.040	2.039
27.731	10.000	2.040	2.046
27.781	10.000	2.040	2.052
27.831	10.000	2.040	2.055
27.881	10.000	2.040	2.055
27.932	10.000	2.040	2.056
27.982	10.000	2.040	2.056
28.032	10.000	2.040	2.055
28.082	10.000	2.040	2.054
28.132	9.714	2.040	2.055
28.181	9.571	2.040	2.056
28.232	9.571	2.040	2.056
28.282	9.143	2.040	2.056
28.334	9.143	2.040	2.056
28.384	8.929	2.040	2.057
28.452	8.643	2.040	2.057
28.520	8.571	2.040	2.059
28.569	8.429	2.040	2.059
28.619	8.357	2.040	2.060
28.669	8.286	2.040	2.060
28.721	8.214	2.040	2.059
28.786	8.071	2.040	2.058
28.839	8.000	2.040	2.055
28.897	7.929	2.040	2.054
28.947	7.857	2.040	2.053
28.996	7.857	2.040	2.051
29.046	7.857	2.040	2.050
29.096	7.857	2.040	2.051
29.147	7.857	2.040	2.050
29.197	7.857	2.040	2.050
29.246	7.857	2.040	2.049
29.298	7.857	2.040	2.049
29.348	7.857	2.040	2.049
29.398	7.857	2.040	2.047
29.448	7.857	2.040	2.047
29.498	7.857	2.040	2.046
29.549	7.786	2.040	2.045
29.599	7.786	2.040	2.045
29.648	7.714	2.040	2.044
29.699	7.643	2.040	2.043
29.749	7.643	2.040	2.045
29.800	7.571	2.040	2.045
29.849	7.500	2.040	2.043
29.900	7.429	2.040	2.044
29.950	7.357	2.040	2.044
29.998	7.357	2.040	2.043
30.048	7.214	2.040	2.042
30.097	7.214	2.040	2.042
30.148	7.214	2.040	2.042
30.199	7.214	2.040	2.040
30.249	7.214	2.040	2.040
30.298	7.214	2.040	2.038
30.349	7.214	2.040	2.039
30.399	7.214	2.040	2.037
30.449	7.214	2.040	2.036
30.500	7.214	2.040	2.035
30.550	7.214	2.040	2.033
30.601	7.214	2.040	2.032
30.653	7.214	2.040	2.030
30.703	7.214	2.040	2.030
30.753	7.214	2.040	2.030
30.804	7.214	2.040	2.029
30.853	7.214	2.040	2.028
30.904	7.214	2.040	2.026
30.954	7.214	2.040	2.025
31.004	7.214	2.040	2.024
31.055	7.214	2.040	2.024
31.104	7.071	2.040	2.024
31.154	6.714	2.040	2.025
31.203	6.714	2.040	2.023
31.253	6.286	2.040	2.023
31.311	6.143	2.040	2.021
31.361	6.143	2.040	2.021
31.411	6.000	2.040	2.019
31.460	5.929	2.040	2.017
31.531	5.857	2.040	2.013
31.580	5.857	2.040	2.008
31.633	5.857	2.040	2.005
31.683	5.857	2.040	2.000
31.733	5.857	2.040	1.995
31.783	5.857	2.040	1.992
31.832	6.143	2.040	1.987
31.883	6.714	2.040	1.985
31.932	6.714	2.040	1.981
31.982	7.429	2.040	1.979
32.037	7.500	2.040	1.976
32.097	7.571	2.040	1.974
32.163	8.000	2.040	1.974
32.213	8.000	2.040	1.975
32.263	8.000	2.040	1.975
32.313	8.000	2.040	1.976
32.363	8.000	2.040	1.976
32.414	8.000	2.040	1.976
32.464	8.000	2.040	1.976
32.514	8.000	2.040	1.976
32.565	8.000	2.040	1.976
32.615	8.000	2.040	1.976
32.665	8.000	2.040	1.977
32.715	8.000	2.040	1.977
32.766	8.000	2.040	1.977
32.816	8.000	2.040	1.977
32.866	8.000	2.040	1.979
32.917	8.000	2.040	1.979
32.968	8.000	2.040	1.979
33.019	8.000	2.040	1.980
33.068	8.000	2.040	1.980
33.119	8.000	2.040	1.982
33.169	8.000	2.040	1.982
33.220	8.000	2.040	1.983
33.270	8.000	2.040	1.983
33.320	8.000	2.040	1.983
33.371	8.000	2.040	1.984
33.420	8.143	2.040	1.983
33.470	8.286	2.040	1.984
33.561	8.429	2.040	1.983
33.611	8.643	2.040	1.983
33.661	8.643	2.040	1.984
33.712	8.714	2.040	1.984
33.762	8.714	2.040	1.984
33.812	8.857	2.040	1.983
33.862	8.929	2.040	1.983
33.912	9.000	2.040	1.984
33.962	9.000	2.040	1.984
34.011	9.071	2.040	1.985
34.062	9.071	2.040	1.983
34.113	9.071	2.040	1.984
34.163	9.071	2.040	1.985
34.213	9.071	2.040	1.986
34.263	9.071	2.040	1.987
34.313	9.071	2.040	1.990
34.363	9.071	2.040	1.992
34.414	9.071	2.040	1.995
34.464	9.071	2.040	1.998
34.514	9.071	2.040	2.001
34.565	9.071	2.040	2.004
34.615	9.071	2.040	2.008
34.666	9.071	2.040	2.011
34.717	9.000	2.040	2.014
34.767	8.857	2.040	2.018
34.816	8.857	2.040	2.021
34.865	8.571	2.040	2.022
34.915	8.571	2.040	2.026
34.965	8.500	2.040	2.027
35.016	8.500	2.040	2.027
35.066	8.500	2.040	2.029
35.116	8.500	2.040	2.029
35.167	8.500	2.040	2.029
35.217	8.500	2.040	2.028
35.267	8.500	2.040	2.028
35.316	8.500	2.040	2.028
35.367	8.500	2.040	2.030
35.417	8.500	2.040	2.030
35.467	8.500	2.040	2.030
35.519	8.500	2.040	2.030
35.569	8.500	2.040	2.031
35.619	8.500	2.040	2.032
35.669	8.500	2.040	2.031
35.719	8.500	2.040	2.031
35.771	8.500	2.040	2.031
35.821	8.500	2.040	2.032
35.871	8.500	2.040	2.031
35.921	8.500	2.040	2.031
35.970	8.500	2.040	2.031
36.021	8.500	2.040	2.032
36.070	8.500	2.040	2.032
36.121	8.500	2.040	2.031
36.172	8.500	2.040	2.031
36.222	8.500	2.040	2.031
36.273	8.500	2.040	2.032
36.323	8.500	2.040	2.032
36.373	8.500	2.040	2.032
36.424	8.500	2.040	2.032
36.474	8.500	2.040	2.031
36.524	8.500	2.040	2.031
36.575	8.500	2.040	2.032
36.625	8.500	2.040	2.032
36.675	8.500	2.040	2.031
36.725	8.500	2.040	2.031
36.775	8.500	2.040	2.031
36.824	8.500	2.040	2.031
36.874	8.500	2.040	2.031
36.925	8.500	2.040	2.032
36.975	8.500	2.040	2.031
37.025	8.500	2.040	2.032
37.077	8.500	2.040	2.032
37.128	8.500	2.040	2.032
37.180	8.500	2.040	2.032
37.231	8.500	2.040	2.031
37.281	8.500	2.040	2.031
37.331	8.500	2.040	2.031
37.382	8.500	2.040	2.031
37.433	8.500	2.040	2.031
37.483	8.500	2.040	2.031
37.533	8.500	2.040	2.031
37.583	8.500	2.040	2.032
37.633	8.500	2.040	2.031
37.684	8.500	2.040	2.031
37.734	8.500	2.040	2.031
37.784	8.500	2.040	2.031
37.835	8.500	2.040	2.031
37.886	8.500	2.040	2.032
37.935	8.500	2.040	2.032
37.985	8.500	2.040	2.033
38.036	8.500	2.040	2.032
38.086	8.500	2.040	2.032
38.136	8.500	2.040	2.032
38.187	8.500	2.040	2.031
38.238	8.500	2.040	2.033
38.288	8.500	2.040	2.031
38.337	8.500	2.040	2.032
38.387	8.500	2.040	2.031
38.437	8.500	2.040	2.032
38.487	8.500	2.040	2.032
38.538	8.500	2.040	2.031
38.588	8.500	2.040	2.032
38.638	8.500	2.040	2.031
38.688	8.500	2.040	2.032
38.738	8.500	2.040	2.032
38.789	8.500	2.040	2.032
38.839	8.500	2.040	2.032
38.889	8.500	2.040	2.032
38.940	8.500	2.040	2.032
38.990	8.500	2.040	2.032
39.040	8.500	2.040	2.032
39.090	8.500	2.040	2.032
39.140	8.500	2.040	2.031
39.191	8.500	2.040	2.032
39.241	8.500	2.040	2.032
39.291	8.500	2.040	2.032
39.342	8.500	2.040	2.033
39.391	8.500	2.040	2.032
39.442	8.500	2.040	2.032
39.492	8.500	2.040	2.031
39.543	8.500	2.040	2.031
39.593	8.500	2.040	2.031
39.642	8.500	2.040	2.032
39.693	8.500	2.040	2.032
39.743	8.500	2.040	2.032
39.793	8.500	2.040	2.032
39.843	8.500	2.040	2.032
39.893	8.500	2.040	2.033
39.944	8.500	2.040	2.033
39.994	8.500	2.040	2.032
40.045	8.500	2.040	2.032
40.095	8.500	2.040	2.033
40.145	8.429	2.040	2.034
40.196	8.429	2.040	2.033
40.246	8.429	2.040	2.035
40.297	8.429	2.040	2.035
40.348	8.429	2.040	2.034
40.398	8.429	2.040	2.034
40.448	8.429	2.040	2.035
40.499	8.429	2.040	2.034
40.548	8.429	2.040	2.035
40.599	8.429	2.040	2.034
40.649	8.429	2.040	2.035
40.699	8.429	2.040	2.034
40.750	8.429	2.040	2.035
40.800	8.429	2.040	2.034
40.850	8.429	2.040	2.035
40.900	8.429	2.040	2.035
40.950	8.429	2.040	2.035
41.000	8.429	2.040	2.035
41.050	8.429	2.040	2.035
41.101	8.429	2.040	2.034
41.151	8.429	2.040	2.034
41.201	8.429	2.040	2.035
41.252	8.429	2.040	2.034
41.310	8.429	2.040	2.033
41.360	8.429	2.040	2.035
41.411	8.429	2.040	2.034
41.461	8.357	2.040	2.034
41.511	8.357	2.040	2.035
41.562	8.357	2.040	2.034
41.612	8.357	2.040	2.035
41.662	8.357	2.040	2.035
41.712	8.357	2.040	2.035
41.762	8.357	2.040	2.036
41.814	8.214	2.040	2.035
41.864	8.214	2.040	2.037
41.914	8.214	2.040	2.036
41.965	8.214	2.040	2.035
42.015	8.214	2.040	2.036
42.065	8.143	2.040	2.036
42.116	8.071	2.040	2.035
42.166	8.000	2.040	2.036
42.215	8.000	2.040	2.036
42.266	7.786	2.040	2.036
42.315	7.786	2.040	2.035
42.367	7.786	2.040	2.035
42.419	7.786	2.040	2.034
42.469	7.786	2.040	2.034
42.520	7.786	2.040	2.034
42.570	7.786	2.040	2.035
42.620	7.786	2.040	2.034
42.671	7.786	2.040	2.035
42.721	7.786	2.040	2.033
42.771	7.786	2.040	2.034
42.821	7.786	2.040	2.034
42.871	7.786	2.040	2.033
42.922	7.786	2.040	2.033
42.972	7.786	2.040	2.033
43.022	7.786	2.040	2.034
43.072	7.786	2.040	2.034
43.122	7.786	2.040	2.033
43.172	7.786	2.040	2.034
43.222	7.786	2.040	2.033
43.273	7.714	2.040	2.032
43.323	7.714	2.040	2.033
43.373	7.643	2.040	2.032
43.423	7.571	2.040	2.033
43.473	7.571	2.040	2.032
43.525	7.500	2.040	2.032
43.576	7.500	2.040	2.032
43.625	7.500	2.040	2.031
43.676	7.429	2.040	2.031
43.726	7.429	2.040	2.031
43.775	7.357	2.040	2.029
43.826	7.286	2.040	2.029
43.876	7.286	2.040	2.029
43.926	7.286	2.040	2.029
43.975	7.286	2.040	2.028
44.026	7.286	2.040	2.027
44.076	7.286	2.040	2.025
44.127	7.286	2.040	2.025
44.177	7.286	2.040	2.025
44.227	7.286	2.040	2.024
44.278	7.286	2.040	2.025
44.329	7.286	2.040	2.025
44.379	7.286	2.040	2.025
44.430	7.286	2.040	2.025
44.480	7.286	2.040	2.025
44.531	7.286	2.040	2.024
44.584	7.286	2.040	2.024
44.636	7.286	2.040	2.023
44.687	7.286	2.040	2.022
44.737	7.286	2.040	2.023
44.787	7.286	2.040	2.021
44.838	7.286	2.040	2.020
44.888	7.286	2.040	2.020
44.938	7.286	2.040	2.017
44.989	7.286	2.040	2.018
45.038	7.286	2.040	2.017
45.088	7.286	2.040	2.016
45.140	7.286	2.040	2.014
45.190	7.286	2.040	2.014
45.240	7.286	2.040	2.014
45.290	7.286	2.040	2.013
45.339	7.286	2.040	2.011
45.390	7.286	2.040	2.012
45.440	7.286	2.040	2.011
45.491	7.286	2.040	2.010
45.541	7.286	2.040	2.009
45.591	7.286	2.040	2.007
45.643	7.286	2.040	2.008
45.693	7.286	2.040	2.007
45.743	7.286	2.040	2.007
45.794	7.286	2.040	2.007
45.844	7.286	2.040	2.007
45.895	7.286	2.040	2.007
45.945	7.286	2.040	2.006
45.996	7.286	2.040	2.007
46.045	7.286	2.040	2.008
46.095	7.286	2.040	2.006
46.145	7.286	2.040	2.007
46.195	7.286	2.040	2.007
46.246	7.286	2.040	2.005
46.296	7.286	2.040	2.007
46.346	7.286	2.040	2.005
46.397	7.286	2.040	2.006
46.446	7.286	2.040	2.006
46.497	7.286	2.040	2.005
46.548	7.286	2.040	2.006
46.601	7.286	2.040	2.005
46.653	7.286	2.040	2.005
46.704	7.286	2.040	2.005
46.754	7.286	2.040	2.005
46.805	7.286	2.040	2.005
46.854	7.286	2.040	2.005
46.904	7.286	2.040	2.005
46.955	7.286	2.040	2.007
47.005	7.286	2.040	2.005
47.056	7.286	2.040	2.005
47.106	7.286	2.040	2.005
47.156	7.286	2.040	2.005
47.207	7.286	2.040	2.005
47.257	7.286	2.040	2.004
47.307	7.286	2.040	2.004
47.357	7.286	2.040	2.003
47.409	7.286	2.040	2.005
47.459	7.286	2.040	2.004
47.509	7.286	2.040	2.005
47.559	7.286	2.040	2.006
47.611	7.286	2.040	2.005
47.660	7.286	2.040	2.003
47.711	7.286	2.040	2.004
47.761	7.286	2.040	2.005
47.811	7.286	2.040	2.006
47.862	7.286	2.040	2.005
47.912	7.286	2.040	2.004
47.962	7.286	2.040	2.004
48.012	7.286	2.040	2.004
48.062	7.286	2.040	2.005
48.113	7.286	2.040	2.004
48.163	7.286	2.040	2.005
48.214	7.286	2.040	2.005
48.263	7.286	2.040	2.005
48.314	7.286	2.040	2.005
48.363	7.286	2.010	2.005
48.413	7.286	2.010	2.005
48.464	7.286	2.010	2.005
48.514	7.286	2.010	2.005
48.564	7.286	2.010	2.006
48.616	7.286	2.010	2.005
48.666	7.286	2.010	2.006
48.716	7.286	2.010	2.004
48.766	7.286	2.010	2.005
48.816	7.286	2.010	2.005
48.867	7.286	2.010	2.004
48.917	7.286	2.010	2.004
48.968	7.286	2.010	2.005
49.018	7.286	2.010	2.005
49.068	7.286	2.010	2.005
49.119	7.286	2.010	2.005
49.169	7.286	2.010	2.005
49.219	7.286	2.010	2.005
49.271	7.286	2.010	2.004
49.321	7.286	2.010	2.005
49.371	7.286	2.010	2.005
49.422	7.286	2.010	2.005
49.472	7.286	2.010	2.005
49.522	7.286	2.010	2.004
49.573	7.286	2.010	2.005
49.623	7.286	2.010	2.004
49.674	7.286	2.010	2.004
49.725	7.286	2.010	2.005
49.775	7.286	2.010	2.004
49.826	7.286	2.010	2.005
49.876	7.286	2.010	2.004
49.926	7.286	2.010	2.004
49.977	7.286	2.010	2.005
50.028	7.286	2.010	2.005
50.078	7.286	2.010	2.005
50.129	7.286	2.010	2.004
50.180	7.286	2.010	2.005
50.230	7.286	2.010	2.005
50.281	7.286	2.010	2.005
50.331	7.286	2.010	2.004
50.381	7.286	2.010	2.004
50.432	7.286	2.010	2.004
50.482	7.286	2.010	2.004
50.532	7.286	2.010	2.005
50.583	7.286	2.010	2.004
50.633	7.286	2.010	2.005
50.683	7.286	2.010	2.004
50.734	7.286	2.010	2.005
50.784	7.286	2.010	2.004
50.835	7.286	2.010	2.004
50.885	7.286	2.010	2.004
50.934	7.286	2.010	2.004
50.985	7.286	2.010	2.004
51.035	7.286	2.010	2.004
51.086	7.286	2.010	2.004
51.136	7.286	2.010	2.004
51.187	7.286	2.010	2.004
51.237	7.286	2.010	2.003
51.287	7.286	2.010	2.003
51.337	7.286	2.010	2.004
51.387	7.286	2.010	2.004
51.437	7.286	2.010	2.003
51.488	7.286	2.010	2.004
51.538	7.286	2.010	2.004
51.589	7.286	2.010	2.004
51.639	7.286	2.010	2.003
51.689	7.286	2.010	2.004
51.740	7.286	2.010	2.003
51.790	7.286	2.010	2.003
51.840	7.286	2.010	2.003
51.891	7.286	2.010	2.003
51.941	7.286	2.010	2.003
51.991	7.286	2.010	2.004
52.042	7.286	2.010	2.005
52.092	7.286	2.010	2.004
52.142	7.286	2.010	2.003
52.192	7.286	2.010	2.004
52.243	7.286	2.010	2.004
52.294	7.286	2.010	2.004
52.344	7.286	2.010	2.004
52.394	7.286	2.010	2.004
52.445	7.286	2.010	2.004
52.495	7.286	2.010	2.003
52.545	7.286	2.010	2.004
52.595	7.286	2.010	2.004
52.646	7.286	2.010	2.004
52.697	7.286	2.010	2.004
52.747	7.286	2.010	2.003
52.797	7.286	2.010	2.005
52.848	7.286	2.010	2.004
52.897	7.286	2.010	2.003
52.948	7.286	2.010	2.005
52.998	7.286	2.010	2.004
53.049	7.286	2.010	2.003
53.099	7.286	2.010	2.004
53.149	7.286	2.010	2.003
53.200	7.286	2.010	2.003
53.249	7.597	2.010	2.004
53.299	7.562	2.010	2.004
53.351	7.564	2.010	2.004
53.401	7.566	2.010	2.005
53.452	7.530	2.010	2.004
53.502	7.551	2.010	2.005
53.553	7.534	2.010	2.005
53.603	7.536	2.010	2.004
53.653	7.557	2.010	2.004
53.703	7.559	2.010	2.004
53.754	7.579	2.010	2.006
53.804	7.469	2.010	2.006
53.854	7.489	2.010	2.004
53.906	7.603	2.010	2.006
53.955	7.493	2.010	2.004
54.006	7.588	2.010	2.005
54.057	7.552	2.010	2.005
54.107	7.554	2.010	2.005
54.158	7.519	2.010	2.005
54.208	7.558	2.010	2.005
54.258	7.560	2.010	2.004
54.308	7.617	2.010	2.003
54.359	7.638	2.010	2.005
54.409	7.566	2.010	2.005
54.459	7.568	2.010	2.005
54.509	7.569	2.010	2.005
54.560	7.571	2.010	2.005
54.610	7.573	2.010	2.005
54.660	7.575	2.010	2.006
54.711	7.502	2.010	2.004
54.760	7.597	2.010	2.003
54.811	7.692	2.010	2.005
54.861	7.564	2.010	2.005
54.912	7.566	2.010	2.005
54.963	7.567	2.010	2.005
55.012	7.569	2.010	2.005
55.063	7.571	2.010	2.005
55.113	7.554	2.010	2.005
55.163	7.574	2.010	2.004
55.214	7.632	2.010	2.005
55.264	7.597	2.010	2.005
55.315	7.598	2.010	2.004
55.365	7.656	2.010	2.003
55.415	7.677	2.010	2.005
55.466	7.605	2.010	2.005
55.516	7.588	2.010	2.004
55.566	7.627	2.010	2.006
55.617	7.554	2.010	2.005
55.667	7.593	2.010	2.004
55.717	7.651	2.010	2.005
55.768	7.597	2.010	2.005
55.818	7.599	2.010	2.004
55.868	7.638	2.010	2.004
55.918	7.658	2.010	2.004
55.968	7.642	2.010	2.005
56.019	7.625	2.010	2.004
56.069	7.645	2.010	2.005
56.120	7.610	2.010	2.004
56.170	7.649	2.010	2.005
56.220	7.614	2.010	2.004
56.270	7.653	2.010	2.005
56.320	7.636	2.010	2.004
56.371	7.656	2.010	2.003
56.422	7.714	2.010	2.004
56.472	7.661	2.010	2.003
56.522	7.719	2.010	2.004
56.573	7.665	2.010	2.005
56.623	7.630	2.010	2.005
56.674	7.650	2.010	2.005
56.724	7.633	2.010	2.004
56.774	7.691	2.010	2.005
56.825	7.656	2.010	2.004
56.876	7.695	2.010	2.005
56.926	7.659	2.010	2.003
56.978	7.736	2.010	2.005
57.028	7.664	2.010	2.004
57.078	7.703	2.010	2.004
57.129	7.705	2.010	2.004
57.179	7.707	2.010	2.005
57.229	7.672	2.010	2.005
57.280	7.673	2.010	2.005
57.330	7.657	2.010	2.004
57.380	7.714	2.010	2.004
57.430	7.698	2.010	2.004
57.481	7.700	2.010	2.005
57.531	7.664	2.010	2.005
57.581	7.647	2.010	2.004
57.632	7.723	2.010	2.004
57.682	7.726	2.010	2.004
57.731	7.709	2.010	2.005
57.782	7.674	2.010	2.005
57.831	7.657	2.010	2.005
57.882	7.696	2.010	2.027
57.932	6.448	2.010	2.073
57.983	3.793	2.010	2.139
58.032	0.000	2.010	2.208
58.082	0.000	2.010	2.255
58.132	0.000	2.010	2.237
58.182	0.000	2.010	2.207
58.233	0.000	2.010	2.158
58.283	0.000	2.010	2.103
58.334	1.636	2.010	2.054
58.384	4.420	2.010	2.020
58.433	6.344	2.010	1.996
58.484	7.703	2.010	1.980
58.534	8.659	2.010	1.970
58.585	9.229	2.010	1.964
58.635	9.597	2.010	1.961
58.685	9.762	2.010	1.961
58.736	9.780	2.010	1.960
58.787	9.853	2.010	1.962
58.837	9.795	2.010	1.961
58.887	9.831	2.010	1.962
58.937	9.811	2.010	1.962
58.988	9.846	2.010	1.962
59.038	9.826	2.010	1.964
59.088	9.731	2.010	1.963
59.138	9.784	2.010	1.966
59.188	9.651	2.010	1.968
59.238	9.536	2.010	1.972
59.288	9.345	2.010	1.974
59.338	9.266	2.010	1.977
59.389	9.073	2.010	1.984
59.439	8.693	2.010	1.989
59.489	8.385	2.010	1.999
59.540	7.833	2.010	2.008
59.590	7.314	2.010	2.019
59.642	6.699	2.010	2.032
59.692	5.931	2.010	2.043
59.742	5.327	2.010	2.052
59.793	4.812	2.010	2.054
59.843	4.685	2.010	2.053
59.893	4.707	2.010	2.047
59.944	5.028	2.010	2.040
59.993	5.425	2.010	2.031
60.044	5.918	2.010	2.020
60.094	6.526	2.010	2.009
60.144	7.157	2.010	1.999
60.195	7.773	2.010	1.990
60.245	8.262	2.010	1.983
60.295	8.660	2.010	1.979
60.345	8.893	2.010	1.977
60.395	9.035	2.010	1.976
60.446	9.121	2.010	1.976
60.496	9.151	2.010	1.976
60.547	9.164	2.010	1.976
60.597	9.176	2.010	1.976
60.647	9.188	2.010	1.977
60.697	9.088	2.010	1.980
60.747	8.969	2.010	1.982
60.798	8.867	2.010	1.987
60.848	8.579	2.010	1.991
60.898	8.344	2.010	1.995
60.949	8.109	2.010	2.000
60.999	7.871	2.010	2.006
61.049	7.502	2.010	2.010
61.099	7.279	2.010	2.016
61.149	6.906	2.010	2.019
61.201	6.755	2.010	2.020
61.251	6.677	2.010	2.021
61.301	6.655	2.010	2.019
61.352	6.763	2.010	2.017
61.402	6.853	2.010	2.016
61.452	6.944	2.010	2.014
61.503	7.054	2.010	2.012
61.553	7.127	2.010	2.009
61.603	7.332	2.010	2.007
61.654	7.425	2.010	2.007
61.704	7.408	2.010	2.005
61.755	7.521	2.010	2.005
61.806	7.522	2.010	2.005
61.856	7.543	2.010	2.004
61.907	7.600	2.010	2.005
61.957	7.528	2.010	2.006
62.008	7.511	2.010	2.006
62.058	7.493	2.010	2.005
62.109	7.551	2.010	2.005
62.159	7.534	2.010	2.005
62.209	7.554	2.010	2.006
62.259	7.481	2.010	2.006
62.309	7.520	2.010	2.008
62.360	7.409	2.010	2.005
62.410	7.541	2.010	2.007
62.461	7.430	2.010	2.007
62.511	7.431	2.010	2.008
62.562	7.414	2.010	2.007
62.613	7.452	2.010	2.007
62.663	7.471	2.010	2.007
62.714	7.454	2.010	2.007
62.764	7.436	2.010	2.008
62.814	7.381	2.010	2.008
62.864	7.419	2.010	2.009
62.915	7.345	2.010	2.008
62.965	7.420	2.010	2.007
63.015	7.440	2.010	2.009
63.065	7.366	2.010	2.008
63.116	7.385	2.010	2.008
63.166	7.423	2.010	2.007
63.216	7.442	2.010	2.008
63.266	7.406	2.010	2.009
63.316	7.332	2.010	2.007
63.367	7.444	2.010	2.007
63.417	7.464	2.010	2.008
63.467	7.428	2.010	2.007
63.518	7.466	2.010	2.008
63.568	7.392	2.010	2.008
63.619	7.393	2.010	2.009
63.669	7.375	2.010	2.009
63.721	7.338	2.010	2.008
63.771	7.394	2.010	2.009
63.822	7.376	2.010	2.008
63.872	7.432	2.010	2.009
63.922	7.377	2.010	2.007
63.973	7.452	2.010	2.008
64.023	7.435	2.010	2.007
64.072	7.473	2.010	2.008
64.122	7.436	2.010	2.008
64.173	7.400	2.010	2.007
64.224	7.475	2.010	2.007
64.274	7.457	2.010	2.007
64.324	7.458	2.010	2.008
64.375	7.403	2.010	2.007
64.425	7.497	2.010	2.007
64.475	7.498	2.010	2.007
64.525	7.462	2.010	2.008
64.576	7.444	2.010	2.009
64.626	7.389	2.010	2.008
64.676	7.446	2.010	2.007
64.726	7.465	2.010	2.008
64.776	7.410	2.010	2.008
64.826	7.448	2.010	2.007
64.876	7.505	2.010	2.008
64.926	7.450	2.010	2.007
64.977	7.488	2.010	2.008
65.027	7.433	2.010	2.008
65.077	7.453	2.010	2.008
65.127	7.435	2.010	2.007
65.177	7.491	2.010	2.008
65.227	7.455	2.010	2.007
65.277	7.475	2.010	2.007
65.328	7.475	2.010	2.008
65.378	7.420	2.010	2.008
65.429	7.458	2.010	2.007
65.479	7.496	2.010	2.008
65.529	7.460	2.010	2.008
65.579	7.461	2.010	2.008
65.629	7.462	2.010	2.008
65.679	7.425	2.010	2.008
65.730	7.463	2.010	2.008
65.779	7.445	2.010	2.009
65.830	7.409	2.010	2.008
65.879	7.428	2.010	2.009
65.930	7.410	2.010	2.008
65.980	7.466	2.010	2.008
66.031	7.448	2.010	2.008
66.082	7.449	2.010	2.009
66.132	7.375	2.010	2.009
66.182	7.394	2.010	2.008
66.232	7.469	2.010	2.008
66.281	7.451	2.010	2.008
66.332	7.452	2.010	2.008
66.382	7.471	2.010	2.007
66.432	7.528	2.010	2.008
66.483	7.473	2.010	2.007
66.533	7.493	2.010	2.009
66.583	7.419	2.010	2.007
66.635	7.494	2.010	2.008
66.684	7.439	2.010	2.007
66.735	7.533	2.010	2.008
66.784	7.478	2.010	2.007
66.835	7.516	2.010	2.008
66.885	7.461	2.010	2.008
66.935	7.462	2.010	2.009
66.985	7.407	2.010	2.008
67.035	7.481	2.010	2.009
67.085	7.408	2.010	2.008
67.135	7.464	2.010	2.008
67.186	7.465	2.010	2.007
67.237	7.503	2.010	2.007
67.287	7.522	2.010	2.008
67.336	7.467	2.010	2.008
67.387	7.449	2.010	2.007
67.437	7.506	2.010	2.008
67.488	7.469	2.010	2.009
67.538	7.414	2.010	2.008
67.588	7.489	2.010	2.007
67.638	7.509	2.010	2.007
67.690	7.510	2.010	2.009
67.740	7.399	2.010	2.008
67.789	7.473	2.010	2.007
67.840	7.549	2.010	2.007
67.891	7.550	2.010	2.008
67.941	7.495	2.010	2.008
67.992	7.496	2.010	2.007
68.042	7.553	2.010	2.008
68.092	7.498	2.010	2.008
68.143	7.461	2.010	2.008
68.194	7.499	2.010	2.008
68.247	7.500	2.010	2.007
68.327	7.519	2.010	2.007
68.377	7.520	2.010	2.008
68.428	7.484	2.010	2.007
68.478	7.541	2.010	2.008
68.528	7.504	2.010	2.007
68.578	7.561	2.010	2.008
68.628	7.488	2.010	2.008
68.679	7.488	2.010	2.008
68.729	7.489	2.010	2.006
68.779	7.583	2.010	2.007
68.828	7.566	2.010	2.008
68.879	7.492	2.010	2.009
68.929	7.437	2.010	2.008
68.979	7.493	2.010	2.008
69.030	7.513	2.010	2.007
69.081	7.532	2.010	2.009
69.131	7.458	2.010	2.007
69.182	7.552	2.010	2.008
69.232	7.478	2.010	2.009
69.282	7.442	2.010	2.008
69.332	7.498	2.010	2.008
69.382	7.499	2.010	2.008
69.432	7.499	2.010	2.009
69.483	7.444	2.010	2.009
69.533	7.463	2.010	2.008
69.584	7.520	2.010	2.008
69.634	7.520	2.010	2.007
69.684	7.540	2.010	2.007
69.735	7.559	2.010	2.009
69.785	7.467	2.010	2.007
69.835	7.542	2.010	2.008
69.887	7.506	2.010	2.008
69.937	7.525	2.010	2.008
69.986	7.489	2.010	2.007
70.037	7.564	2.010	2.008
70.087	7.509	2.010	2.008
70.138	7.528	2.010	2.008
70.188	7.529	2.010	2.008
70.238	7.493	2.010	2.008
70.288	7.512	2.010	2.008
70.338	7.494	2.010	2.008
70.389	7.513	2.010	2.007
70.439	7.551	2.010	2.008
70.489	7.496	2.010	2.008
70.540	7.497	2.010	2.010
70.590	7.423	2.010	2.009
70.641	7.479	2.010	2.008
70.691	7.498	2.010	2.009
70.741	7.461	2.010	2.009
70.791	7.443	2.010	2.009
70.841	7.443	2.010	2.009
70.892	7.462	2.010	2.009
70.942	7.462	2.010	2.008
70.992	7.500	2.010	2.008
71.043	7.519	2.010	2.008
71.093	7.539	2.010	2.007
71.144	7.558	2.010	2.008
71.194	7.522	2.010	2.009
71.244	7.448	2.010	2.008
71.294	7.523	2.010	2.008
71.344	7.523	2.010	2.008
71.395	7.543	2.010	2.009
71.447	7.487	2.010	2.009
71.497	7.469	2.010	2.008
71.547	7.507	2.010	2.007
71.598	7.563	2.010	2.008
71.648	7.546	2.010	2.009
71.699	7.453	2.010	2.008
71.749	7.547	2.010	2.008
71.799	7.529	2.010	2.009
71.850	7.474	2.010	2.009
71.899	7.493	2.010	2.008
71.950	7.549	2.010	2.007
72.000	7.569	2.010	2.007
72.050	7.607	2.010	2.007
72.101	7.571	2.010	2.008
72.151	7.553	2.010	2.009
72.201	7.498	2.010	2.008
72.252	7.517	2.010	2.009
72.302	7.480	2.010	2.008
72.351	7.518	2.010	2.008
72.402	7.537	2.010	2.008
72.452	7.538	2.010	2.008
72.503	7.520	2.010	2.009
72.552	7.464	2.010	2.008
72.603	7.521	2.010	2.008
72.654	7.558	2.010	2.007
72.704	7.597	2.010	2.008
72.755	7.560	2.010	2.008
72.805	7.561	2.010	2.008
72.855	7.562	2.010	2.008
72.906	7.525	2.010	2.007
72.956	7.601	2.010	2.007
73.006	7.583	2.010	2.008
73.057	7.565	2.010	2.007
73.106	7.603	2.010	2.063
73.158	4.415	2.010	2.209
73.208	0.000	2.010	2.512
73.257	0.000	2.010	2.450
73.307	0.000	2.010	2.302
73.357	0.000	2.010	2.224
73.407	0.000	2.010	2.146
73.457	0.000	2.010	2.084
73.508	2.560	2.010	2.041
73.558	4.978	2.010	2.011
73.609	6.701	2.010	1.991
73.659	7.839	2.010	1.976
73.709	8.722	2.010	1.968
73.759	9.163	2.010	1.962
73.809	9.532	2.010	1.961
73.859	9.642	2.010	1.961
73.910	9.640	2.010	1.962
73.960	9.602	2.010	1.961
74.011	9.674	2.010	1.962
74.060	9.617	2.010	1.962
74.109	9.652	2.010	1.962
74.159	9.632	2.010	1.963
74.210	9.630	2.010	1.964
74.260	9.572	2.010	1.964
74.310	9.569	2.010	1.967
74.361	9.455	2.010	1.969
74.411	9.358	2.010	1.973
74.461	9.130	2.010	1.976
74.511	8.938	2.010	1.982
74.560	8.651	2.010	1.991
74.610	8.120	2.010	1.999
74.660	7.679	2.010	2.010
74.711	7.049	2.010	2.023
74.761	6.303	2.010	2.039
74.810	5.366	2.010	2.052
74.860	4.628	2.010	2.064
74.911	3.905	2.010	2.069
74.962	3.606	2.010	2.066
75.012	3.790	2.010	2.055
75.062	4.405	2.010	2.042
75.112	5.117	2.010	2.032
75.162	5.684	2.010	2.016
75.213	6.571	2.010	2.003
75.262	7.315	2.010	1.992
75.313	7.971	2.010	1.983
75.363	8.499	2.010	1.976
75.414	8.882	2.010	1.972
75.464	9.117	2.010	1.970
75.514	9.243	2.010	1.969
75.565	9.312	2.010	1.968
75.615	9.383	2.010	1.970
75.665	9.323	2.010	1.970
75.715	9.337	2.010	1.970
75.765	9.313	2.010	1.973
75.816	9.178	2.010	1.975
75.866	9.079	2.010	1.979
75.916	8.868	2.010	1.984
75.967	8.599	2.010	1.991
76.018	8.179	2.010	1.997
76.067	7.850	2.010	2.007
76.118	7.276	2.010	2.017
76.168	6.699	2.010	2.029
76.218	6.044	2.010	2.042
76.269	5.273	2.010	2.051
76.318	4.721	2.010	2.056
76.369	4.464	2.010	2.056
76.420	4.448	2.010	2.051
76.470	4.712	2.010	2.044
76.521	5.089	2.010	2.034
76.571	5.637	2.010	2.024
76.621	6.207	2.010	2.013
76.671	6.836	2.010	2.001
76.721	7.525	2.010	1.993
76.771	7.957	2.010	1.985
76.821	8.429	2.010	1.983
76.872	8.550	2.010	1.980
76.922	8.746	2.010	1.979
76.973	8.793	2.010	1.979
77.023	8.823	2.010	1.981
77.073	8.740	2.010	1.981
77.123	8.751	2.010	1.981
77.175	8.724	2.010	1.985
77.225	8.547	2.010	1.987
77.275	8.425	2.010	1.989
77.326	8.322	2.010	1.992
77.375	8.124	2.010	1.998
77.424	7.794	2.010	2.002
77.475	7.556	2.010	2.008
77.526	7.223	2.010	2.015
77.576	6.869	2.010	2.020
77.625	6.532	2.010	2.025
77.675	6.267	2.010	2.028
77.726	6.075	2.010	2.030
77.776	5.976	2.010	2.029
77.825	6.006	2.010	2.027
77.876	6.149	2.010	2.024
77.926	6.311	2.010	2.020
77.977	6.492	2.010	2.016
78.027	6.768	2.010	2.012
78.077	6.990	2.010	2.006
78.127	7.307	2.010	2.004
78.177	7.439	2.010	2.001
78.227	7.590	2.010	1.999
78.277	7.724	2.010	1.998
78.327	7.765	2.010	1.999
78.378	7.732	2.010	1.999
78.428	7.736	2.010	1.999
78.479	7.758	2.010	1.999
78.528	7.725	2.010	1.999
78.579	7.766	2.010	1.999
78.629	7.770	2.010	1.999
78.679	7.755	2.010	1.999
78.729	7.741	2.010	2.001
78.780	7.651	2.010	2.000
78.830	7.692	2.010	2.000
78.880	7.695	2.010	2.000
78.930	7.698	2.010	2.000
78.981	7.720	2.010	2.002
79.031	7.612	2.010	2.001
79.081	7.671	2.010	2.000
79.132	7.711	2.010	2.002
79.182	7.603	2.010	2.002
79.232	7.643	2.010	2.002
79.283	7.627	2.010	2.003
79.333	7.556	2.010	2.001
79.383	7.670	2.010	2.002
79.433	7.617	2.010	2.002
79.484	7.638	2.010	2.003
79.534	7.585	2.010	2.003
79.583	7.569	2.010	2.004
79.633	7.534	2.010	2.005
79.683	7.462	2.010	2.005
79.734	7.445	2.010	2.005
79.783	7.484	2.010	2.004
79.834	7.504	2.010	2.005
79.885	7.469	2.010	2.005
79.936	7.471	2.010	2.005
79.986	7.454	2.010	2.004
80.036	7.530	2.010	2.003
80.086	7.569	2.010	2.004
80.137	7.553	2.010	2.004
80.187	7.536	2.010	2.003
80.237	7.594	2.010	2.004
80.287	7.522	2.010	2.003
80.337	7.580	2.010	2.004
80.387	7.564	2.010	2.003
80.435	7.603	2.010	2.004
80.486	7.550	2.010	2.004
80.536	7.552	2.010	2.005
80.587	7.516	2.010	2.004
80.637	7.556	2.010	2.003
80.688	7.632	2.010	2.004
80.738	7.560	2.010	2.005
80.787	7.525	2.010	2.004
80.837	7.545	2.010	2.005
80.887	7.510	2.010	2.005
80.938	7.512	2.010	2.005
80.989	7.495	2.010	2.004
81.041	7.571	2.010	2.005
81.091	7.499	2.010	2.006
81.142	7.481	2.010	2.005
81.192	7.520	2.010	2.005
81.242	7.541	2.010	2.005
81.292	7.524	2.010	2.005
81.342	7.526	2.010	2.004
81.393	7.583	2.010	2.005
81.443	7.511	2.010	2.004
81.494	7.568	2.010	2.004
81.544	7.570	2.010	2.006
81.594	7.497	2.010	2.004
81.644	7.592	2.010	2.006
81.694	7.482	2.010	2.005
81.745	7.540	2.010	2.004
81.795	7.579	2.010	2.006
81.845	7.506	2.010	2.004
81.896	7.619	2.010	2.004
81.946	7.603	2.010	2.004
81.995	7.586	2.010	2.005
82.046	7.532	2.010	2.005
82.096	7.553	2.010	2.006
82.147	7.480	2.010	2.005
82.197	7.556	2.010	2.006
82.247	7.520	2.010	2.005
82.298	7.540	2.010	2.006
82.348	7.504	2.010	2.005
82.398	7.562	2.010	2.005
82.448	7.582	2.010	2.004
82.499	7.603	2.010	2.003
82.549	7.679	2.010	2.005
82.599	7.570	2.010	2.005
82.649	7.553	2.010	2.005
82.700	7.573	2.010	2.005
82.750	7.556	2.010	2.005
82.800	7.558	2.010	2.006
82.850	7.522	2.010	2.006
82.900	7.523	2.010	2.005
82.951	7.599	2.010	2.006
83.001	7.545	2.010	2.005
83.052	7.584	2.010	2.005
83.101	7.586	2.010	2.006
83.151	7.550	2.010	2.005
83.201	7.589	2.010	2.006
83.251	7.553	2.010	2.004
83.302	7.629	2.010	2.005
83.352	7.594	2.010	2.005
83.402	7.596	2.010	2.006
83.454	7.560	2.010	2.005
83.507	7.599	2.010	2.006
83.557	7.563	2.010	2.006
83.607	7.546	2.010	2.005
83.658	7.604	2.010	2.005
83.708	7.587	2.010	2.005
83.758	7.588	2.010	2.005
83.809	7.609	2.010	2.005
83.859	7.610	2.010	2.006
83.909	7.575	2.010	2.006
83.960	7.576	2.010	2.006
84.011	7.578	2.010	2.005
84.062	7.616	2.010	2.005
84.112	7.599	2.010	2.016
84.162	7.023	2.010	2.034
84.213	5.939	2.010	2.052
84.263	4.923	2.010	2.070
84.312	3.883	2.010	2.079
84.363	3.321	2.010	2.080
84.413	3.241	2.010	2.070
84.464	3.776	2.010	2.054
84.514	4.706	2.010	2.040
84.564	5.511	2.010	2.022
84.614	6.508	2.010	2.005
84.664	7.455	2.010	1.991
84.715	8.259	2.010	1.979
84.765	8.955	2.010	1.973
84.816	9.358	2.010	1.968
84.866	9.613	2.010	1.964
84.916	9.852	2.010	1.964
84.966	9.905	2.010	1.964
85.016	9.902	2.010	1.964
85.067	9.918	2.010	1.965
85.117	9.897	2.010	1.966
85.167	9.820	2.010	1.967
85.218	9.779	2.010	1.970
85.268	9.663	2.010	1.972
85.318	9.566	2.010	1.976
85.368	9.318	2.010	1.980
85.418	9.125	2.010	1.987
85.468	8.706	2.010	1.994
85.518	8.304	2.010	2.003
85.568	7.806	2.010	2.015
85.617	7.155	2.010	2.027
85.666	6.445	2.010	2.041
85.718	5.619	2.010	2.055
85.767	4.824	2.010	2.066
85.818	4.193	2.010	2.069
85.868	3.969	2.010	2.068
85.918	4.004	2.010	2.061
85.968	4.375	2.010	2.051
86.018	4.935	2.010	2.036
86.068	5.779	2.010	2.021
86.117	6.646	2.010	2.007
86.169	7.444	2.010	1.996
86.220	8.098	2.010	1.986
86.270	8.663	2.010	1.980
86.320	9.026	2.010	1.975
86.370	9.316	2.010	1.974
86.420	9.384	2.010	1.972
86.469	9.509	2.010	1.971
86.520	9.578	2.010	1.971
86.570	9.592	2.010	1.972
86.621	9.531	2.010	1.973
86.672	9.507	2.010	1.976
86.722	9.370	2.010	1.977
86.772	9.289	2.010	1.981
86.823	9.058	2.010	1.987
86.872	8.770	2.010	1.992
86.923	8.480	2.010	2.000
86.973	8.020	2.010	2.009
87.024	7.520	2.010	2.019
87.074	6.923	2.010	2.029
87.124	6.379	2.010	2.042
87.174	5.627	2.010	2.051
87.225	5.075	2.010	2.056
87.274	4.781	2.010	2.057
87.325	4.671	2.010	2.053
87.375	4.897	2.010	2.046
87.425	5.274	2.010	2.039
87.476	5.709	2.010	2.028
87.526	6.333	2.010	2.019
87.576	6.830	2.010	2.008
87.626	7.461	2.010	1.999
87.676	7.984	2.010	1.991
87.726	8.436	2.010	1.989
87.776	8.573	2.010	1.986
87.827	8.730	2.010	1.986
87.877	8.757	2.010	1.985
87.927	8.784	2.010	1.986
87.976	8.756	2.010	1.986
88.027	8.764	2.010	1.986
88.077	8.754	2.010	1.987
88.127	8.744	2.010	1.988
88.178	8.677	2.010	1.990
88.228	8.536	2.010	1.992
88.279	8.449	2.010	1.996
88.329	8.232	2.010	2.000
88.378	7.994	2.010	2.005
88.429	7.718	2.010	2.010
88.479	7.421	2.010	2.016
88.530	7.067	2.010	2.021
88.580	6.822	2.010	2.027
88.629	6.482	2.010	2.030
88.680	6.253	2.010	2.032
88.730	6.171	2.010	2.031
88.781	6.219	2.010	2.029
88.831	6.305	2.010	2.027
88.882	6.429	2.010	2.022
88.932	6.684	2.010	2.021
88.982	6.773	2.010	2.017
89.032	6.975	2.010	2.013
89.083	7.233	2.010	2.011
89.132	7.344	2.010	2.008
89.183	7.512	2.010	2.007
89.232	7.569	2.010	2.005
89.283	7.663	2.010	2.006
89.333	7.628	2.010	2.007
89.383	7.573	2.010	2.006
89.433	7.630	2.010	2.007
89.483	7.576	2.010	2.005
89.533	7.652	2.010	2.005
89.584	7.653	2.010	2.006
89.634	7.617	2.010	2.007
89.685	7.544	2.010	2.007
89.734	7.582	2.010	2.007
89.783	7.565	2.010	2.007
89.834	7.566	2.010	2.006
89.885	7.604	2.010	2.006
89.937	7.624	2.010	2.007
89.988	7.551	2.010	2.007
90.038	7.589	2.010	2.006
90.088	7.609	2.010	2.007
90.137	7.592	2.010	2.007
90.187	7.574	2.010	2.006
90.237	7.612	2.010	2.008
90.288	7.539	2.010	2.008
90.340	7.521	2.010	2.009
90.390	7.485	2.010	2.008
90.441	7.504	2.010	2.009
90.490	7.448	2.010	2.008
90.540	7.523	2.010	2.008
90.590	7.524	2.010	2.009
90.641	7.450	2.010	2.010
90.693	7.432	2.010	2.010
90.743	7.413	2.010	2.010
90.793	7.413	2.010	2.009
90.846	7.469	2.010	2.009
90.897	7.451	2.010	2.011
90.946	7.376	2.010	2.009
90.997	7.451	2.010	2.010
91.049	7.432	2.010	2.009
91.100	7.451	2.010	2.010
91.151	7.433	2.010	2.009
91.204	7.470	2.010	2.009
91.255	7.452	2.010	2.010
91.307	7.396	2.010	2.010
91.359	7.415	2.010	2.011
91.410	7.377	2.010	2.011
91.461	7.377	2.010	2.011
91.511	7.358	2.010	2.011
91.561	7.358	2.010	2.011
91.612	7.358	2.010	2.012
91.660	7.320	2.010	2.011
91.710	7.375	2.010	2.011
91.760	7.357	2.010	2.010
91.810	7.394	2.010	2.011
91.859	7.375	2.010	2.011
91.911	7.375	2.010	2.010
91.962	7.393	2.010	2.011
92.011	7.356	2.010	2.010
92.061	7.430	2.010	2.009
92.112	7.449	2.010	2.008
92.162	7.524	2.010	2.011
92.212	7.375	2.010	2.010
92.262	7.393	2.010	2.009
92.313	7.468	2.010	2.009
92.363	7.487	2.010	2.009
92.413	7.487	2.010	2.009
92.463	7.469	2.010	2.009
92.513	7.488	2.010	2.008
92.563	7.526	2.010	2.009
92.613	7.452	2.010	2.007
92.664	7.583	2.010	2.007
92.714	7.565	2.010	2.007
92.764	7.566	2.010	2.006
92.815	7.642	2.010	2.007
92.864	7.587	2.010	2.007
92.915	7.588	2.010	2.007
92.965	7.589	2.010	2.007
93.015	7.609	2.010	2.007
93.066	7.610	2.010	2.007
93.115	7.611	2.010	2.007
93.166	7.575	2.010	2.007
93.216	7.576	2.010	2.008
93.266	7.558	2.010	2.007
93.317	7.578	2.010	2.009
93.367	7.504	2.010	2.008
93.417	7.523	2.010	2.007
93.468	7.580	2.010	2.007
93.517	7.599	2.010	2.007
93.568	7.619	2.010	2.008
93.618	7.545	2.010	2.007
93.668	7.621	2.010	2.008
93.719	7.528	2.010	2.008
93.771	7.566	2.010	2.007
93.821	7.586	2.010	2.007
93.871	7.587	2.010	2.007
93.921	7.588	2.010	2.008
93.971	7.551	2.010	2.007
94.021	7.608	2.010	2.008
94.071	7.572	2.010	2.007
94.121	7.610	2.010	2.008
94.171	7.536	2.010	2.009
94.222	7.481	2.010	2.008
94.271	7.556	2.010	2.009
94.322	7.500	2.010	2.008
94.374	7.538	2.010	2.010
94.426	7.427	2.010	2.009
94.476	7.483	2.010	2.010
94.527	7.464	2.010	2.011
94.577	7.408	2.010	2.011
94.627	7.408	2.010	2.009
94.678	7.483	2.010	2.009
94.728	7.483	2.010	2.010
94.777	7.464	2.010	2.010
94.828	7.446	2.010	2.009
94.879	7.521	2.010	2.010
94.930	7.465	2.010	2.008
94.979	7.540	2.010	2.010
95.029	7.447	2.010	2.009
95.079	7.484	2.010	2.008
95.129	7.559	2.010	2.008
95.179	7.579	2.010	2.008
95.229	7.561	2.010	2.009
95.280	7.505	2.010	2.008
95.330	7.562	2.010	2.008
95.380	7.544	2.010	2.009
95.431	7.488	2.010	2.009
95.480	7.489	2.010	2.010
95.531	7.470	2.010	2.010
95.581	7.452	2.010	2.009
95.631	7.526	2.010	2.008
95.682	7.564	2.010	2.009
95.731	7.509	2.010	2.010
95.782	7.472	2.010	2.009
95.833	7.491	2.010	2.010
95.882	7.472	2.010	2.008
95.933	7.547	2.010	2.012
95.983	7.361	2.010	2.024
96.033	6.632	2.010	2.039
96.084	5.788	2.010	2.053
96.133	4.975	2.010	2.062
96.183	4.457	2.010	2.065
96.233	4.272	2.010	2.059
96.283	4.570	2.010	2.067
96.334	4.086	2.010	2.073
96.385	3.730	2.010	2.073
96.435	3.690	2.010	2.088
96.485	2.827	2.010	2.097
96.534	2.297	2.010	2.104
96.583	1.875	2.010	2.108
96.634	1.619	2.010	2.113
96.685	1.249	2.010	2.109
96.735	1.456	2.010	2.115
96.785	1.103	2.010	2.120
96.835	0.750	2.010	2.119
96.885	0.786	2.010	2.117
96.934	0.879	2.010	2.106
96.985	1.439	2.010	2.083
97.035	2.712	2.010	2.073
97.085	3.282	2.010	2.069
97.135	3.483	2.010	2.056
97.185	4.246	2.010	2.031
97.236	5.612	2.010	2.007
97.286	7.022	2.010	1.989
97.336	8.048	2.010	1.978
97.386	8.689	2.010	1.970
97.436	9.166	2.010	1.965
97.487	9.423	2.010	1.961
97.537	9.718	2.010	1.960
97.588	9.754	2.010	1.960
97.638	9.771	2.010	1.962
97.688	9.695	2.010	1.961
97.738	9.749	2.010	1.961
97.788	9.785	2.010	1.962
97.839	9.765	2.010	1.963
97.889	9.689	2.010	1.963
97.939	9.686	2.010	1.965
97.990	9.609	2.010	1.967
98.040	9.513	2.010	1.970
98.090	9.379	2.010	1.973
98.140	9.188	2.010	1.978
98.190	8.921	2.010	1.983
98.241	8.652	2.010	1.992
98.291	8.139	2.010	2.001
98.341	7.642	2.010	2.011
98.392	7.067	2.010	2.025
98.442	6.245	2.010	2.040
98.493	5.419	2.010	2.055
98.543	4.532	2.010	2.065
98.593	3.920	2.010	2.071
98.643	3.584	2.010	2.070
98.693	3.601	2.010	2.061
98.743	4.121	2.010	2.046
98.794	4.962	2.010	2.026
98.843	6.069	2.010	2.011
98.894	6.921	2.010	1.998
98.944	7.666	2.010	1.986
98.995	8.379	2.010	1.978
99.045	8.853	2.010	1.975
99.095	9.051	2.010	1.969
99.146	9.380	2.010	1.967
99.196	9.488	2.010	1.966
99.246	9.559	2.010	1.965
99.296	9.648	2.010	1.966
99.346	9.608	2.010	1.967
99.396	9.586	2.010	1.968
99.446	9.527	2.010	1.970
99.497	9.448	2.010	1.972
99.547	9.313	2.010	1.975
99.596	9.177	2.010	1.980
99.647	8.891	2.010	1.986
99.697	8.547	2.010	1.995
99.747	8.070	2.010	2.004
99.798	7.515	2.010	2.017
99.848	6.808	2.010	2.031
99.899	5.985	2.010	2.048
99.948	5.026	2.010	2.065
99.999	4.043	2.010	2.078
100.049	3.279	2.010	2.083
100.100	2.957	2.010	2.078
100.151	3.212	2.010	2.065
100.201	3.954	2.010	2.046
100.251	4.998	2.010	2.029
100.300	5.955	2.010	2.012
100.350	6.956	2.010	1.997
100.401	7.813	2.010	1.985
100.451	8.489	2.010	1.976
100.502	9.001	2.010	1.970
100.552	9.386	2.010	1.966
100.601	9.586	2.010	1.962
100.650	9.881	2.010	1.961
100.700	9.935	2.010	1.960
100.751	10.000	2.010	1.961
100.800	9.951	2.010	1.962
100.851	9.894	2.010	1.963
100.901	9.854	2.010	1.964
100.951	9.833	2.010	1.966
101.001	9.719	2.010	1.970
101.051	9.510	2.010	1.973
101.101	9.375	2.010	1.979
101.151	9.052	2.010	1.985
101.201	8.727	2.010	1.994
101.251	8.176	2.010	2.006
101.302	7.510	2.010	2.018
101.351	6.840	2.010	2.034
101.401	5.923	2.010	2.053
101.450	4.833	2.010	2.074
101.501	3.605	2.010	2.092
101.551	2.557	2.010	2.100
101.601	2.026	2.010	2.090
101.652	2.574	2.010	2.075
101.701	3.442	2.010	2.059
101.751	4.295	2.010	2.038
101.801	5.510	2.010	2.015
101.852	6.824	2.010	1.998
101.902	7.792	2.010	1.984
101.952	8.598	2.010	1.975
102.003	9.148	2.010	1.969
102.053	9.495	2.010	1.963
102.103	9.846	2.010	1.961
102.154	9.992	2.010	1.961
102.204	9.991	2.010	1.961
102.254	10.000	2.010	1.961
102.304	10.000	2.010	1.963
102.354	9.912	2.010	1.963
102.405	9.910	2.010	1.965
102.454	9.814	2.010	1.967
102.505	9.736	2.010	1.968
102.556	9.677	2.010	1.973
102.605	9.411	2.010	1.978
102.656	9.144	2.010	1.985
102.706	8.782	2.010	1.992
102.756	8.381	2.010	2.004
102.806	7.678	2.010	2.017
102.856	6.934	2.010	2.033
102.907	6.036	2.010	2.053
102.956	4.890	2.010	2.073
103.007	3.681	2.010	2.092
103.057	2.596	2.010	2.101
103.108	2.027	2.010	2.097
103.158	2.258	2.010	2.077
103.208	3.348	2.010	2.061
103.259	4.275	2.010	2.039
103.310	5.489	2.010	2.019
103.359	6.616	2.010	2.000
103.410	7.750	2.010	1.986
103.460	8.537	2.010	1.976
103.511	9.123	2.010	1.969
103.563	9.545	2.010	1.962
103.613	9.914	2.010	1.961
103.663	10.000	2.010	1.960
103.712	10.000	2.010	1.961
103.762	10.000	2.010	1.960
103.812	10.000	2.010	1.961
103.862	10.000	2.010	1.962
103.912	10.000	2.010	1.964
103.963	9.959	2.010	1.965
104.013	9.900	2.010	1.966
104.063	9.841	2.010	1.971
104.113	9.614	2.010	1.975
104.164	9.404	2.010	1.979
104.214	9.174	2.010	1.986
104.264	8.774	2.010	1.996
104.315	8.204	2.010	2.008
104.364	7.519	2.010	2.024
104.416	6.624	2.010	2.043
104.467	5.500	2.010	2.068
104.518	4.089	2.010	2.096
104.568	2.427	2.010	2.118
104.619	1.148	2.010	2.127
104.669	0.589	2.010	2.112
104.720	1.389	2.010	2.098
104.769	2.193	2.010	2.078
104.820	3.300	2.010	2.051
104.870	4.844	2.010	2.025
104.921	6.321	2.010	2.004
104.971	7.510	2.010	1.987
105.022	8.500	2.010	1.976
105.072	9.142	2.010	1.969
105.123	9.508	2.010	1.963
105.173	9.895	2.010	1.960
105.223	10.000	2.010	1.961
105.274	10.000	2.010	1.961
105.324	10.000	2.010	1.962
105.374	10.000	2.010	1.963
105.425	9.980	2.010	1.962
105.475	10.000	2.010	1.964
105.525	9.957	2.010	1.965
105.575	9.899	2.010	1.968
105.625	9.747	2.010	1.971
105.676	9.594	2.010	1.976
105.726	9.327	2.010	1.982
105.776	8.985	2.010	1.990
105.827	8.547	2.010	2.002
105.877	7.863	2.010	2.016
105.927	7.083	2.010	2.033
105.977	6.092	2.010	2.054
106.027	4.853	2.010	2.080
106.078	3.382	2.010	2.105
106.128	1.922	2.010	2.120
106.179	0.994	2.010	2.114
106.229	1.330	2.010	2.097
106.278	2.227	2.010	2.080
106.329	3.223	2.010	2.054
106.379	4.672	2.010	2.028
106.429	6.149	2.010	2.006
106.480	7.374	2.010	1.990
106.530	8.307	2.010	1.977
106.581	9.078	2.010	1.968
106.632	9.612	2.010	1.964
106.682	9.832	2.010	1.961
106.731	10.000	2.010	1.961
106.781	10.000	2.010	1.961
106.831	10.000	2.010	1.962
106.881	10.000	2.010	1.962
106.932	10.000	2.010	1.962
106.982	10.000	2.010	1.963
107.032	10.000	2.010	1.964
107.083	9.966	2.010	1.967
107.133	9.832	2.010	1.969
107.183	9.736	2.010	1.972
107.233	9.545	2.010	1.977
107.283	9.278	2.010	1.981
107.334	9.047	2.010	1.990
107.384	8.572	2.010	2.001
107.434	7.963	2.010	2.015
107.484	7.164	2.010	2.032
107.534	6.137	2.010	2.055
107.585	4.860	2.010	2.081
107.635	3.315	2.010	2.111
107.685	1.574	2.010	2.133
107.737	0.289	2.010	2.131
107.787	0.341	2.010	2.116
107.837	1.195	2.010	2.100
107.888	2.035	2.010	2.076
107.938	3.384	2.010	2.046
107.989	5.096	2.010	2.019
108.039	6.613	2.010	2.000
108.089	7.746	2.010	1.983
108.140	8.682	2.010	1.974
108.190	9.232	2.010	1.966
108.240	9.711	2.010	1.960
108.291	10.000	2.010	1.961
108.341	10.000	2.010	1.960
108.392	10.000	2.010	1.960
108.442	10.000	2.010	1.962
108.492	10.000	2.010	1.962
108.543	10.000	2.010	1.962
108.593	10.000	2.010	1.964
108.643	9.920	2.010	1.965
108.694	9.899	2.010	1.967
108.744	9.784	2.010	1.970
108.795	9.650	2.010	1.973
108.845	9.477	2.010	1.980
108.895	9.117	2.010	1.985
108.945	8.810	2.010	1.996
108.995	8.203	2.010	2.011
109.046	7.368	2.010	2.029
109.096	6.342	2.010	2.053
109.146	4.955	2.010	2.081
109.197	3.298	2.010	2.114
109.246	1.371	2.010	2.141
109.297	0.000	2.010	2.145
109.347	0.000	2.010	2.129
109.397	0.406	2.010	2.111
109.448	1.390	2.010	2.084
109.498	2.885	2.010	2.055
109.548	4.575	2.010	2.025
109.598	6.238	2.010	2.003
109.648	7.519	2.010	1.987
109.699	8.435	2.010	1.976
109.749	9.039	2.010	1.969
109.799	9.498	2.010	1.963
109.850	9.811	2.010	1.961
109.900	9.976	2.010	1.960
109.949	10.000	2.010	1.961
109.998	9.992	2.010	1.961
110.049	10.000	2.010	1.961
110.099	10.000	2.010	1.963
110.150	9.950	2.010	1.964
110.200	9.873	2.010	1.964
110.250	9.889	2.010	1.967
110.301	9.737	2.010	1.970
110.351	9.584	2.010	1.975
110.400	9.337	2.010	1.980
110.451	9.051	2.010	1.988
110.502	8.595	2.010	1.998
110.553	8.024	2.010	2.012
110.603	7.245	2.010	2.029
110.653	6.236	2.010	2.051
110.704	4.980	2.010	2.077
110.754	3.491	2.010	2.106
110.804	1.826	2.010	2.127
110.854	0.581	2.010	2.127
110.904	0.542	2.010	2.111
110.955	1.379	2.010	2.095
111.005	2.295	2.010	2.069
111.055	3.739	2.010	2.038
111.105	5.510	2.010	2.014
111.155	6.861	2.010	1.995
111.206	7.978	2.010	1.981
111.256	8.748	2.010	1.972
111.306	9.317	2.010	1.965
111.356	9.703	2.010	1.961
111.406	9.961	2.010	1.960
111.457	10.000	2.010	1.960
111.507	10.000	2.010	1.962
111.557	9.976	2.010	1.962
111.607	9.993	2.010	1.962
111.657	9.991	2.010	1.963
111.708	9.933	2.010	1.964
111.758	9.912	2.010	1.966
111.808	9.816	2.010	1.969
111.859	9.664	2.010	1.974
111.909	9.361	2.010	1.979
111.959	9.113	2.010	1.985
112.009	8.769	2.010	1.996
112.060	8.125	2.010	2.011
112.110	7.271	2.010	2.029
112.160	6.226	2.010	2.055
112.211	4.745	2.010	2.086
112.262	2.957	2.010	2.123
112.311	0.822	2.010	2.149
112.362	0.000	2.010	2.149
112.413	0.000	2.010	2.132
112.463	0.149	2.010	2.110
112.514	1.394	2.010	2.078
112.564	3.169	2.010	2.046
112.614	4.992	2.010	2.019
112.664	6.527	2.010	1.999
112.714	7.679	2.010	1.984
112.764	8.559	2.010	1.975
112.815	9.072	2.010	1.966
112.866	9.588	2.010	1.961
112.916	9.882	2.010	1.960
112.966	9.955	2.010	1.962
113.015	9.879	2.010	1.962
113.065	9.877	2.010	1.962
113.116	9.913	2.010	1.962
113.166	9.930	2.010	1.963
113.215	9.872	2.010	1.964
113.265	9.851	2.010	1.965
113.314	9.792	2.010	1.968
113.365	9.659	2.010	1.972
113.415	9.412	2.010	1.974
113.465	9.351	2.010	1.981
113.514	8.916	2.010	1.984
113.565	8.758	2.010	1.993
113.614	8.282	2.010	2.004
113.664	7.654	2.010	2.017
113.714	6.872	2.010	2.029
113.764	6.180	2.010	2.046
113.814	5.240	2.010	2.069
113.864	3.865	2.010	2.079
113.915	3.286	2.010	2.087
113.965	2.833	2.010	2.087
114.016	2.807	2.010	2.074
114.066	3.527	2.010	2.056
114.116	4.494	2.010	2.039
114.167	5.485	2.010	2.020
114.217	6.575	2.010	2.006
114.267	7.336	2.010	1.989
114.318	8.307	2.010	1.977
114.368	9.023	2.010	1.975
114.419	9.183	2.010	1.972
114.469	9.344	2.010	1.964
114.519	9.806	2.010	1.962
114.569	9.933	2.010	1.965
114.619	9.782	2.010	1.967
114.670	9.704	2.010	1.963
114.720	9.925	2.010	1.964
114.770	9.885	2.010	1.969
114.821	9.602	2.010	1.971
114.870	9.524	2.010	1.969
114.921	9.650	2.010	1.974
114.971	9.384	2.010	1.980
115.021	9.042	2.010	1.982
115.071	8.959	2.010	1.994
115.121	8.278	2.010	2.004
115.172	7.687	2.010	2.016
115.222	6.980	2.010	2.027
115.272	6.400	2.010	2.046
115.323	5.275	2.010	2.065
115.373	4.162	2.010	2.080
115.424	3.303	2.010	2.088
115.474	2.832	2.010	2.082
115.525	3.123	2.010	2.069
115.575	3.825	2.010	2.056
115.626	4.551	2.010	2.040
115.676	5.486	2.010	2.022
115.727	6.501	2.010	2.003
115.777	7.560	2.010	1.992
115.826	8.215	2.010	1.982
115.877	8.799	2.010	1.974
115.927	9.256	2.010	1.973
115.978	9.362	2.010	1.968
116.029	9.655	2.010	1.966
116.078	9.744	2.010	1.965
116.128	9.815	2.010	1.967
116.178	9.756	2.010	1.966
116.229	9.790	2.010	1.968
116.279	9.712	2.010	1.968
116.329	9.708	2.010	1.970
116.380	9.610	2.010	1.972
116.429	9.531	2.010	1.975
116.479	9.376	2.010	1.979
116.530	9.165	2.010	1.984
116.580	8.896	2.010	1.989
116.631	8.588	2.010	1.999
116.681	8.054	2.010	2.008
116.730	7.517	2.010	2.018
116.780	6.921	2.010	2.032
116.830	6.116	2.010	2.047
116.881	5.269	2.010	2.061
116.930	4.472	2.010	2.070
116.981	3.914	2.010	2.075
117.030	3.632	2.010	2.070
117.080	3.871	2.010	2.060
117.130	4.410	2.010	2.049
117.180	5.064	2.010	2.037
117.230	5.741	2.010	2.024
117.280	6.478	2.010	2.012
117.331	7.163	2.010	2.001
117.381	7.759	2.010	1.993
117.431	8.247	2.010	1.985
117.481	8.719	2.010	1.982
117.532	8.877	2.010	1.979
117.583	9.036	2.010	1.978
117.633	9.102	2.010	1.977
117.684	9.169	2.010	1.977
117.734	9.218	2.010	1.977
117.784	9.211	2.010	1.979
117.834	9.092	2.010	1.981
117.884	8.991	2.010	1.983
117.935	8.889	2.010	1.990
117.985	8.487	2.010	1.995
118.035	8.233	2.010	2.002
118.086	7.865	2.010	2.009
118.136	7.439	2.010	2.019
118.185	6.880	2.010	2.029
118.237	6.299	2.010	2.041
118.286	5.620	2.010	2.050
118.337	5.069	2.010	2.054
118.387	4.832	2.010	2.054
118.438	4.835	2.010	2.049
118.488	5.063	2.010	2.044
118.538	5.366	2.010	2.033
118.588	5.989	2.010	2.020
118.639	6.709	2.010	2.010
118.688	7.302	2.010	2.000
118.740	7.880	2.010	1.991
118.790	8.350	2.010	1.984
118.840	8.804	2.010	1.980
118.891	9.037	2.010	1.977
118.941	9.196	2.010	1.976
118.991	9.301	2.010	1.977
119.041	9.238	2.010	1.977
119.091	9.213	2.010	1.977
119.142	9.243	2.010	1.979
119.192	9.124	2.010	1.981
119.243	9.060	2.010	1.983
119.293	8.921	2.010	1.987
119.344	8.706	2.010	1.992
119.394	8.453	2.010	1.997
119.444	8.161	2.010	2.002
119.494	7.904	2.010	2.009
119.545	7.478	2.010	2.016
119.595	7.105	2.010	2.021
119.646	6.768	2.010	2.028
119.696	6.409	2.010	2.031
119.746	6.198	2.010	2.031
119.796	6.173	2.010	2.031
119.845	6.202	2.010	2.029
119.896	6.289	2.010	2.026
119.946	6.450	2.010	2.024
119.996	6.593	2.010	2.022
120.047	6.700	2.010	2.019
120.096	6.827	2.010	2.016
120.146	7.010	2.010	2.016
120.196	7.045	2.010	2.015
120.247	7.099	2.010	2.014
120.297	7.154	2.010	2.013
120.347	7.171	2.010	2.013
120.397	7.170	2.010	2.013
120.447	7.206	2.010	2.012
120.498	7.224	2.010	2.012
120.548	7.223	2.010	2.013
120.599	7.203	2.010	2.012
120.649	7.240	2.010	2.012
120.699	7.258	2.010	2.011
120.750	7.276	2.010	2.011
120.800	7.275	2.010	2.011
120.850	7.312	2.010	2.011
120.900	7.293	2.010	2.011
120.949	7.293	2.010	2.011
121.000	7.311	2.010	2.012
121.050	7.236	2.010	2.008
121.101	7.479	2.010	2.008
121.152	7.479	2.010	2.007
121.202	7.536	2.010	2.007
121.252	7.518	2.010	2.009
121.302	7.389	2.010	2.006
121.352	7.576	2.010	2.007
121.402	7.521	2.010	2.007
121.453	7.522	2.010	2.007
121.504	7.504	2.010	2.008
121.554	7.468	2.010	2.008
121.604	7.469	2.010	2.007
121.653	7.507	2.010	2.007
121.703	7.545	2.010	2.007
121.753	7.546	2.010	2.008
121.804	7.491	2.010	2.007
121.854	7.511	2.010	2.007
121.904	7.512	2.010	2.008
122.193	7.494	2.010	2.009
122.243	7.439	2.010	2.007
122.293	7.533	2.010	2.009
122.343	7.440	2.010	2.008
122.393	7.478	2.010	2.008
122.445	7.460	2.010	2.008
122.495	7.479	2.010	2.009
122.546	7.443	2.010	2.008
122.597	7.481	2.010	2.010
122.646	7.388	2.010	2.009
122.696	7.407	2.010	2.009
122.746	7.426	2.010	2.008
122.796	7.501	2.010	2.010
122.846	7.352	2.010	2.008
122.896	7.464	2.010	2.010
122.947	7.390	2.010	2.011
122.997	7.334	2.010	2.011
123.048	7.315	2.010	2.011
123.099	7.334	2.010	2.010
123.148	7.389	2.010	2.012
123.200	7.277	2.010	2.010
123.250	7.352	2.010	2.011
123.300	7.314	2.010	2.010
123.351	7.370	2.010	2.011
123.401	7.332	2.010	2.010
123.451	7.370	2.010	2.010
123.502	7.370	2.010	2.011
123.551	7.314	2.010	2.010
123.602	7.351	2.010	2.010
123.652	7.351	2.010	2.012
123.703	7.238	2.010	2.009
123.753	7.406	2.010	2.011
123.803	7.294	2.010	2.011
123.853	7.312	2.010	2.011
123.903	7.312	2.010	2.011
123.953	7.330	2.010	2.010
124.004	7.386	2.010	2.011
124.054	7.330	2.010	2.010
124.105	7.348	2.010	2.011
124.155	7.330	2.010	2.010
124.205	7.355	2.010	2.011
124.255	7.323	2.010	2.011
124.304	7.279	2.010	2.011
124.355	7.316	2.010	2.011
124.405	7.310	2.010	2.011
124.456	7.309	2.010	2.011
124.506	7.334	2.010	2.010
124.556	7.353	2.010	2.011
124.606	7.296	2.010	2.012
124.655	7.233	2.010	2.012
124.706	7.277	2.010	2.012
124.756	7.245	2.010	2.011
124.807	7.326	2.010	2.011
124.857	7.331	2.010	2.011
124.907	7.299	2.010	2.009
124.958	7.431	2.010	2.010
125.008	7.374	2.010	2.010
125.058	7.355	2.010	2.011
125.109	7.312	2.010	2.011
125.159	7.299	2.010	2.011
125.209	7.331	2.010	2.011
125.260	7.324	2.010	2.011
125.311	7.299	2.010	2.011
125.361	7.330	2.010	2.011
125.411	7.323	2.010	2.010
125.461	7.373	2.010	2.009
125.512	7.410	2.010	2.010
125.562	7.322	2.010	2.010
125.612	7.392	2.010	2.011
125.662	7.278	2.010	2.011
125.712	7.329	2.010	2.011
125.762	7.323	2.010	2.009
125.812	7.424	2.010	2.010
125.862	7.347	2.010	2.010
125.913	7.360	2.010	2.009
125.963	7.435	2.010	2.010
126.013	7.341	2.010	2.010
126.062	7.386	2.010	2.009
126.113	7.404	2.010	2.010
126.163	7.323	2.010	2.011
126.213	7.317	2.010	2.011
126.264	7.323	2.010	2.011
126.314	7.323	2.010	2.010
126.364	7.373	2.010	2.011
126.415	7.310	2.010	2.009
126.465	7.448	2.010	2.009
126.516	7.391	2.010	2.008
126.566	7.473	2.010	2.010
126.616	7.303	2.010	2.010
126.667	7.342	2.010	2.010
126.717	7.367	2.010	2.010
126.768	7.386	2.010	2.011
126.818	7.254	2.010	2.011
126.868	7.336	2.010	2.009
126.918	7.423	2.010	2.010
126.968	7.373	2.010	2.010
127.019	7.354	2.010	2.011
127.069	7.310	2.010	2.012
127.119	7.248	2.010	2.011
127.170	7.291	2.010	2.055
127.220	3.939	2.010	2.174
127.269	0.000	2.010	2.410
127.320	0.000	2.010	2.513
127.370	0.000	2.010	2.363
127.421	0.000	2.010	2.276
127.471	0.000	2.010	2.186
127.521	0.000	2.010	2.111
127.571	2.419	2.010	2.059
127.621	4.849	2.010	2.023
127.671	6.622	2.010	1.998
127.721	7.851	2.010	1.980
127.772	8.699	2.010	1.970
127.822	9.120	2.010	1.964
127.872	9.392	2.010	1.961
127.923	9.591	2.010	1.962
127.973	9.456	2.010	1.961
128.024	9.543	2.010	1.962
128.075	9.497	2.010	1.962
128.125	9.476	2.010	1.962
128.176	9.506	2.010	1.962
128.228	9.548	2.010	1.963
128.278	9.458	2.010	1.965
128.328	9.324	2.010	1.967
128.378	9.260	2.010	1.969
128.428	9.156	2.010	1.971
128.478	9.084	2.010	1.975
128.529	8.780	2.010	1.980
128.579	8.529	2.010	1.989
128.629	7.901	2.010	1.996
128.679	7.544	2.010	2.008
128.729	6.761	2.010	2.022
128.779	5.945	2.010	2.039
128.828	4.931	2.010	2.057
128.879	3.794	2.010	2.075
128.929	2.822	2.010	2.079
128.979	2.817	2.010	2.074
129.028	3.282	2.010	2.059
129.078	4.260	2.010	2.047
129.127	4.917	2.010	2.030
129.179	5.972	2.010	2.011
129.229	7.068	2.010	1.997
129.279	7.823	2.010	1.984
129.330	8.522	2.010	1.975
129.378	8.964	2.010	1.971
129.429	9.143	2.010	1.968
129.479	9.294	2.010	1.964
129.530	9.526	2.010	1.962
129.581	9.622	2.010	1.963
129.631	9.550	2.010	1.963
129.681	9.579	2.010	1.964
129.730	9.520	2.010	1.963
129.779	9.607	2.010	1.965
129.829	9.459	2.010	1.968
129.880	9.314	2.010	1.970
129.930	9.203	2.010	1.973
129.980	9.036	2.010	1.977
130.030	8.756	2.010	1.985
130.080	8.280	2.010	1.991
130.130	7.985	2.010	2.001
130.179	7.300	2.010	2.012
130.230	6.664	2.010	2.025
130.280	5.874	2.010	2.041
130.330	4.896	2.010	2.056
130.380	4.072	2.010	2.067
130.430	3.498	2.010	2.070
130.481	3.443	2.010	2.065
130.530	3.866	2.010	2.052
130.581	4.774	2.010	2.038
130.631	5.579	2.010	2.024
130.681	6.346	2.010	2.008
130.733	7.289	2.010	1.995
130.783	7.989	2.010	1.984
130.834	8.635	2.010	1.976
130.884	8.968	2.010	1.973
130.933	9.115	2.010	1.970
130.984	9.305	2.010	1.968
131.034	9.381	2.010	1.968
131.085	9.363	2.010	1.968
131.135	9.378	2.010	1.968
131.185	9.368	2.010	1.970
131.236	9.288	2.010	1.972
131.285	9.176	2.010	1.973
131.335	9.129	2.010	1.976
131.385	8.942	2.010	1.981
131.435	8.584	2.010	1.986
131.486	8.355	2.010	1.992
131.536	7.949	2.010	2.002
131.587	7.360	2.010	2.013
131.637	6.692	2.010	2.026
131.687	5.906	2.010	2.037
131.737	5.280	2.010	2.050
131.787	4.517	2.010	2.058
131.838	4.106	2.010	2.061
131.888	4.029	2.010	2.057
131.938	4.421	2.010	2.050
131.989	4.865	2.010	2.039
132.039	5.566	2.010	2.025
132.090	6.361	2.010	2.013
132.140	7.075	2.010	2.002
132.190	7.625	2.010	1.991
132.241	8.271	2.010	1.984
132.291	8.589	2.010	1.981
132.341	8.738	2.010	1.978
132.392	8.902	2.010	1.976
132.442	8.957	2.010	1.977
132.492	8.917	2.010	1.976
132.542	8.960	2.010	1.977
132.592	8.915	2.010	1.977
132.643	8.965	2.010	1.979
132.693	8.794	2.010	1.982
132.743	8.599	2.010	1.983
132.794	8.649	2.010	1.986
132.844	8.413	2.010	1.990
132.894	8.185	2.010	1.995
132.944	7.892	2.010	2.000
132.994	7.618	2.010	2.005
133.045	7.294	2.010	2.013
133.095	6.775	2.010	2.020
133.144	6.431	2.010	2.028
133.195	5.959	2.010	2.032
133.245	5.754	2.010	2.035
133.295	5.586	2.010	2.034
133.345	5.743	2.010	2.032
133.395	5.859	2.010	2.028
133.444	6.141	2.010	2.024
133.495	6.374	2.010	2.020
133.545	6.588	2.010	2.015
133.595	6.859	2.010	2.010
133.646	7.141	2.010	2.006
133.696	7.373	2.010	2.003
133.747	7.490	2.010	2.002
133.798	7.541	2.010	2.002
133.848	7.518	2.010	2.001
133.899	7.596	2.010	2.001
133.950	7.605	2.010	2.001
133.999	7.577	2.010	2.002
134.050	7.536	2.010	2.002
134.100	7.552	2.010	2.002
134.151	7.580	2.010	2.002
134.201	7.576	2.010	2.002
134.251	7.529	2.010	2.003
134.301	7.495	2.010	2.004
134.351	7.435	2.010	2.004
134.401	7.431	2.010	2.004
134.452	7.440	2.010	2.006
134.502	7.316	2.010	2.005
134.554	7.400	2.010	2.006
134.604	7.314	2.010	2.007
134.654	7.284	2.010	2.005
134.704	7.399	2.010	2.005
134.754	7.374	2.010	2.006
134.805	7.326	2.010	2.006
134.855	7.340	2.010	2.005
134.905	7.392	2.010	2.005
134.955	7.431	2.010	2.005
135.005	7.394	2.010	2.005
135.055	7.403	2.010	2.006
135.105	7.354	2.010	2.005
135.155	7.419	2.010	2.006
135.205	7.307	2.010	2.007
135.255	7.284	2.010	2.006
135.307	7.373	2.010	2.007
135.357	7.280	2.010	2.006
135.408	7.350	2.010	2.006
135.458	7.389	2.010	2.006
135.508	7.353	2.010	2.006
135.558	7.360	2.010	2.006
135.609	7.387	2.010	2.006
135.659	7.382	2.010	2.006
135.710	7.358	2.010	2.007
135.761	7.291	2.010	2.007
135.811	7.336	2.010	2.007
135.860	7.331	2.010	2.006
135.912	7.357	2.010	2.007
135.961	7.327	2.010	2.006
136.012	7.385	2.010	2.006
136.061	7.348	2.010	2.006
136.112	7.381	2.010	2.005
136.162	7.451	2.010	2.005
136.212	7.408	2.010	2.007
136.263	7.316	2.010	2.006
136.313	7.393	2.010	2.005
136.364	7.432	2.010	2.006
136.414	7.395	2.010	2.005
136.464	7.454	2.010	2.006
136.514	7.342	2.010	2.006
136.564	7.419	2.010	2.006
136.614	7.408	2.010	2.007
136.665	7.309	2.010	2.006
136.715	7.411	2.010	2.006
136.766	7.393	2.010	2.007
136.816	7.344	2.010	2.007
136.866	7.358	2.010	2.007
136.917	7.360	2.010	2.007
136.966	7.335	2.010	2.007
137.017	7.368	2.010	2.007
137.067	7.363	2.010	2.006
137.117	7.389	2.010	2.007
137.168	7.334	2.010	2.006
137.218	7.448	2.010	2.007
137.267	7.323	2.010	2.007
137.318	7.375	2.010	2.007
137.634	7.370	2.010	2.006
137.684	7.396	2.010	2.007
137.734	7.366	2.010	2.008
137.785	7.298	2.010	2.007
137.835	7.344	2.010	2.008
137.885	7.288	2.010	2.007
137.936	7.401	2.010	2.007
137.986	7.327	2.010	2.007
138.036	7.366	2.010	2.008
138.087	7.285	2.010	2.007
138.136	7.406	2.010	2.007
138.187	7.331	2.010	2.007
138.237	7.395	2.010	2.007
138.287	7.358	2.010	2.007
138.338	7.340	2.010	2.007
138.388	7.398	2.010	2.007
138.438	7.336	2.010	2.007
138.488	7.400	2.010	2.008
138.538	7.313	2.010	2.007
138.589	7.358	2.010	2.010
138.638	7.176	2.010	2.009
138.688	7.298	2.010	2.009
138.736	7.279	2.010	2.010
138.787	7.204	2.010	2.010
138.837	7.223	2.010	2.010
138.887	7.198	2.010	2.010
138.937	7.180	2.010	2.011
138.988	7.161	2.010	2.009
139.038	7.318	2.010	2.010
139.088	7.154	2.010	2.009
139.139	7.261	2.010	2.008
139.189	7.368	2.010	2.010
139.239	7.185	2.010	2.008
139.289	7.325	2.010	2.010
139.339	7.199	2.010	2.008
139.390	7.350	2.010	2.010
139.440	7.193	2.010	2.009
139.491	7.276	2.010	2.008
139.541	7.339	2.010	2.009
139.591	7.270	2.010	2.009
139.642	7.283	2.010	2.009
139.692	7.259	2.010	2.010
139.742	7.215	2.010	2.009
139.793	7.254	2.010	2.009
139.843	7.273	2.010	2.008
139.893	7.317	2.010	2.009
139.944	7.229	2.010	2.009
139.993	7.299	2.010	2.008
140.044	7.336	2.010	2.008
140.094	7.324	2.010	2.007
140.144	7.492	2.010	2.008
140.195	7.116	2.010	2.007
140.244	7.563	2.010	2.007
140.295	7.365	2.010	2.008
140.345	7.282	2.010	2.008
140.395	7.264	2.010	2.009
140.446	7.165	2.010	2.007
140.496	7.628	2.010	2.008
140.547	7.204	2.010	2.007
140.597	7.499	2.010	2.007
140.647	7.454	2.010	2.007
140.697	7.306	2.010	2.008
140.747	7.205	2.010	2.007
140.798	7.500	2.010	2.008
140.848	7.206	2.010	2.008
140.898	7.337	2.010	2.007
140.948	7.589	2.010	2.007
140.998	7.395	2.010	2.007
141.048	7.479	2.010	2.008
141.098	7.165	2.010	2.007
141.149	7.525	2.010	2.009
141.199	6.897	2.010	2.007
141.249	7.706	2.010	2.008
141.300	7.134	2.010	2.009
141.350	7.242	2.010	2.009
141.400	7.308	2.010	2.007
141.450	7.643	2.010	2.008
141.500	7.300	2.010	2.009
141.551	7.036	2.010	2.008
141.601	7.459	2.010	2.009
141.651	7.162	2.010	2.009
141.702	7.375	2.010	2.009
141.752	7.312	2.010	2.009
141.802	7.145	2.010	2.007
141.852	7.945	2.010	2.008
141.902	7.007	2.010	2.007
141.953	7.580	2.010	2.008
142.003	7.139	2.010	2.007
142.054	7.582	2.010	2.008
142.104	7.224	2.010	2.014
142.154	5.848	2.010	2.073
142.204	0.000	2.010	2.200
142.255	0.000	2.010	2.427
142.305	0.000	2.010	2.517
142.357	0.000	2.010	2.363
142.407	10.000	2.010	2.265
142.457	10.000	2.010	2.171
142.508	10.000	2.010	2.091
142.558	10.000	2.010	2.044
142.608	10.000	2.010	2.012
142.658	10.000	2.010	1.998
142.709	9.888	2.010	1.989
142.760	9.522	2.010	1.983
142.810	9.334	2.010	1.981
142.860	8.610	2.010	1.980
142.910	8.397	2.010	1.983
142.961	7.618	2.010	1.984
143.011	7.726	2.010	1.986
143.062	7.635	2.010	1.989
143.112	7.048	2.010	1.992
143.163	7.194	2.010	1.997
143.213	6.391	2.010	2.001
143.263	6.367	2.010	2.006
143.314	5.833	2.010	2.009
143.363	6.004	2.010	2.010
143.414	6.421	2.010	2.010
143.464	6.696	2.010	2.009
143.514	6.882	2.010	2.007
143.565	7.100	2.010	2.006
143.615	6.949	2.010	2.004
143.666	7.315	2.010	2.003
143.716	7.353	2.010	2.002
143.766	7.281	2.010	2.001
143.817	7.336	2.010	2.002
143.867	6.729	2.010	2.003
143.917	6.890	2.010	2.002
143.968	7.270	2.010	2.003
144.018	6.914	2.010	2.002
144.068	7.297	2.010	2.003
144.118	6.854	2.010	2.002
144.168	7.135	2.010	2.003
144.219	6.990	2.010	2.002
144.269	7.140	2.010	2.002
144.320	7.078	2.010	2.002
144.371	7.245	2.010	2.003
144.421	6.786	2.010	2.003
144.471	7.132	2.010	2.002
144.521	7.321	2.010	2.002
144.571	7.129	2.010	2.002
144.622	6.967	2.010	2.003
144.672	6.929	2.010	2.003
144.722	7.146	2.010	2.002
144.773	7.413	2.010	2.003
144.822	6.821	2.010	2.002
144.873	7.418	2.010	2.003
144.923	6.748	2.010	2.002
144.974	7.322	2.010	2.002
145.024	7.050	2.010	2.002
145.074	7.118	2.010	2.002
145.125	7.203	2.010	2.002
145.176	7.059	2.010	2.002
145.225	7.381	2.010	2.002
145.276	7.185	2.010	2.001
145.326	7.355	2.010	2.002
145.377	7.063	2.010	2.001
145.427	7.361	2.010	2.002
145.477	6.900	2.010	2.002
145.527	7.330	2.010	2.002
145.576	7.118	2.010	2.061
145.626	0.000	2.010	2.293
145.677	0.000	2.010	2.502
145.726	0.000	2.010	2.291
145.778	10.000	2.010	2.194
145.827	10.000	2.010	2.116
145.877	10.000	2.010	2.060
145.928	10.000	2.010	2.027
145.978	10.000	2.010	2.004
146.029	10.000	2.010	1.992
146.081	9.406	2.010	1.985
146.131	9.149	2.010	1.982
146.181	8.498	2.010	1.981
146.231	7.942	2.010	1.981
146.281	7.887	2.010	1.985
146.331	7.060	2.010	1.988
146.382	6.812	2.010	1.991
146.433	6.697	2.010	1.997
146.482	5.981	2.010	2.000
146.533	6.306	2.010	2.002
146.583	6.298	2.010	2.004
146.633	6.086	2.010	2.006
146.683	6.274	2.010	2.006
146.734	6.535	2.010	2.005
146.785	6.619	2.010	2.003
146.836	7.134	2.010	2.002
146.886	6.941	2.010	1.999
146.936	7.502	2.010	1.998
146.987	7.250	2.010	1.998
147.037	6.915	2.010	1.999
147.087	6.734	2.010	1.998
147.138	7.345	2.010	1.998
147.189	6.865	2.010	1.998
147.240	6.997	2.010	1.997
147.291	7.248	2.010	1.998
147.341	6.810	2.010	1.998
147.391	7.010	2.010	1.998
147.441	7.014	2.010	1.998
147.491	7.101	2.010	1.999
147.542	6.711	2.010	2.002
147.592	6.300	2.010	2.048
147.643	0.000	2.010	2.146
147.693	0.000	2.010	2.332
147.743	0.000	2.010	2.564
147.793	0.000	2.010	2.415
147.843	10.000	2.010	2.311
147.893	9.475	2.010	2.202
147.944	10.000	2.010	2.113
147.993	10.000	2.010	2.060
148.044	10.000	2.010	2.023
148.093	10.000	2.010	2.006
148.144	9.093	2.010	1.995
148.194	8.688	2.010	1.990
148.244	7.821	2.010	1.987
148.295	7.529	2.010	1.987
148.345	6.880	2.010	1.987
148.395	7.037	2.010	1.989
148.445	6.394	2.010	1.991
148.494	6.261	2.010	1.993
148.544	6.314	2.010	1.997
148.594	5.641	2.010	1.999
148.646	5.938	2.010	2.000
148.696	6.067	2.010	1.999
148.747	6.430	2.010	1.999
148.797	6.474	2.010	1.997
148.847	6.766	2.010	1.996
148.898	6.775	2.010	1.994
148.948	6.943	2.010	1.992
148.998	7.036	2.010	1.992
149.049	6.807	2.010	1.992
149.099	6.832	2.010	1.990
149.149	7.108	2.010	1.991
149.199	6.687	2.010	1.992
149.249	6.573	2.010	1.991
149.299	7.025	2.010	1.992
149.349	6.586	2.010	1.991
149.400	7.117	2.010	1.992
149.450	6.617	2.010	1.991
149.500	6.986	2.010	1.990
149.550	7.198	2.010	1.992
149.600	6.359	2.010	1.992
149.651	6.820	2.010	1.992
149.702	6.909	2.010	1.991
149.752	6.935	2.010	1.992
149.803	6.794	2.010	1.992
149.854	6.864	2.010	1.992
149.904	6.871	2.010	1.992
149.953	6.877	2.010	1.992
150.005	6.884	2.010	1.991
150.054	7.145	2.010	1.991
150.105	6.788	2.010	1.990
150.155	7.173	2.010	1.991
150.206	6.902	2.010	1.992
150.256	6.722	2.010	1.992
150.305	6.923	2.010	1.990
150.357	7.254	2.010	1.990
150.408	7.011	2.010	1.991
150.457	6.763	2.010	1.990
150.508	7.298	2.010	1.991
150.558	6.882	2.010	1.991
150.609	6.937	2.010	1.991
150.659	7.007	2.010	1.990
150.709	7.349	2.010	1.991
150.759	6.761	2.010	1.992
150.809	6.693	2.010	1.991
150.859	7.378	2.010	1.991
150.911	6.978	2.010	1.991
150.961	7.131	2.010	1.991
151.012	6.990	2.010	1.991
151.062	7.060	2.010	1.992
151.112	6.900	2.010	1.992
151.162	7.036	2.010	1.990
151.212	7.377	2.010	1.991
151.263	6.959	2.010	1.992
151.313	6.758	2.010	1.991
151.363	7.276	2.010	1.992
151.414	7.005	2.010	1.991
151.464	7.242	2.010	1.991
151.514	7.035	2.010	1.991
151.564	7.274	2.010	1.992
151.614	6.900	2.010	1.991
151.665	7.266	2.010	1.993
151.715	6.727	2.010	1.991
151.766	7.470	2.010	1.991
151.816	7.158	2.010	1.991
151.866	7.081	2.010	1.992
151.916	6.985	2.010	1.993
151.966	6.954	2.010	1.993
152.016	7.090	2.010	1.992
152.066	7.263	2.010	1.992
152.116	7.223	2.010	1.992
152.167	7.000	2.010	1.992
152.217	7.133	2.010	1.993
152.266	6.970	2.010	1.993
152.317	7.191	2.010	1.993
152.368	7.133	2.010	1.992
152.418	7.306	2.010	1.993
152.468	6.931	2.010	1.993
152.519	7.215	2.010	1.993
152.569	7.073	2.010	1.993
152.619	7.144	2.010	1.993
152.669	7.234	2.010	1.993
152.719	7.008	2.010	1.992
152.770	7.473	2.010	1.992
152.820	7.224	2.010	1.992
152.870	7.147	2.010	1.992
152.921	7.301	2.010	1.992
152.971	7.327	2.010	1.991
153.021	7.436	2.010	1.992
153.071	6.977	2.010	1.991
153.121	7.495	2.010	1.991
153.171	7.306	2.010	1.992
153.222	7.061	2.010	1.992
153.272	7.346	2.010	1.992
153.321	7.203	2.010	1.992
153.372	7.275	2.010	1.993
153.422	7.114	2.010	1.992
153.473	7.415	2.010	1.993
153.523	7.126	2.010	1.992
153.573	7.429	2.010	1.993
153.623	7.222	2.010	1.993
153.674	7.211	2.010	1.991
153.724	7.782	2.010	1.993
153.774	6.980	2.010	1.993
153.824	7.312	2.010	1.993
153.875	7.153	2.010	1.993
153.925	7.453	2.010	1.993
153.976	7.329	2.010	1.993
154.025	7.165	2.010	1.993
154.076	7.469	2.010	1.993
154.126	7.264	2.010	1.991
154.176	7.753	2.010	1.992
154.226	7.183	2.010	1.991
154.277	7.632	2.010	1.992
154.327	7.280	2.010	1.992
154.377	7.416	2.010	1.993
154.427	7.171	2.010	1.994
154.477	7.205	2.010	1.993
154.526	7.511	2.010	1.992
154.576	7.551	2.010	1.993
154.626	7.176	2.010	1.994
154.676	7.210	2.010	1.994
154.727	7.263	2.010	1.994
154.777	7.416	2.010	1.995
154.827	7.189	2.010	1.994
154.877	7.492	2.010	1.995
154.927	7.116	2.010	1.995
154.978	7.399	2.010	1.993
155.028	7.676	2.010	1.994
155.078	7.170	2.010	1.994
155.128	7.538	2.010	1.994
155.177	7.244	2.010	1.994
155.227	7.382	2.010	1.994
155.277	7.471	2.010	1.994
155.327	7.328	2.010	1.994
155.377	7.482	2.010	1.995
155.427	7.172	2.010	1.995
155.478	7.289	2.010	1.994
155.526	7.618	2.010	1.995
155.576	7.252	2.010	1.993
155.626	7.806	2.010	1.994
155.677	7.322	2.010	1.995
155.727	7.204	2.010	1.994
155.777	7.572	2.010	1.995
155.827	7.280	2.010	1.994
155.877	7.583	2.010	1.995
155.927	7.374	2.010	1.996
155.977	7.194	2.010	1.995
156.028	7.559	2.010	1.995
156.078	7.436	2.010	1.994
156.129	7.771	2.010	1.993
156.179	7.773	2.010	1.993
156.229	7.500	2.010	1.995
156.278	7.153	2.010	1.994
156.329	7.567	2.010	1.994
156.379	7.591	2.010	1.995
156.429	7.280	2.010	1.994
156.479	7.732	2.010	1.994
156.530	7.542	2.010	1.994
156.579	7.463	2.010	1.996
156.629	7.205	2.010	1.996
156.679	7.465	2.010	1.995
156.729	7.638	2.010	1.995
156.780	7.513	2.010	1.996
156.831	7.353	2.010	1.995
156.881	7.653	2.010	1.996
156.932	7.363	2.010	1.994
156.983	7.826	2.010	1.995
157.034	7.411	2.010	1.995
157.085	7.462	2.010	1.996
157.135	7.363	2.010	1.996
157.187	7.579	2.010	1.996
157.237	7.438	2.010	1.997
157.287	7.341	2.010	1.996
157.337	7.559	2.010	1.997
157.388	7.334	2.010	1.996
157.438	7.717	2.010	1.996
157.488	7.611	2.010	1.997
157.538	7.299	2.010	1.997
157.589	7.417	2.010	1.997
157.640	7.568	2.010	1.995
157.690	7.843	2.010	1.997
157.739	7.163	2.010	1.996
157.789	7.751	2.010	1.996
157.838	7.560	2.010	1.997
157.889	7.318	2.010	1.996
157.940	7.679	2.010	1.996
157.992	7.556	2.010	1.996
158.043	7.642	2.010	1.997
158.094	7.333	2.010	1.997
158.143	7.618	2.010	1.997
158.194	7.556	2.010	1.998
158.243	7.136	2.010	1.997
158.293	7.890	2.010	1.996
158.344	7.652	2.010	1.995
158.394	7.928	2.010	1.996
158.444	7.506	2.010	1.997
158.494	7.306	2.010	1.997
158.545	7.653	2.010	1.998
158.596	7.347	2.010	1.998
158.646	7.542	2.010	1.997
158.696	7.798	2.010	1.997
158.746	7.524	2.010	1.997
158.797	7.593	2.010	1.997
158.847	7.514	2.010	1.997
158.895	7.584	2.010	1.997
158.945	7.672	2.010	1.997
158.995	7.611	2.010	1.997
159.047	7.535	2.010	1.997
159.098	7.602	2.010	1.998
159.148	7.522	2.010	1.998
159.200	7.429	2.010	1.997
159.250	7.810	2.010	1.999
159.300	7.284	2.010	1.998
159.350	7.800	2.010	1.998
159.400	7.441	2.010	1.997
159.451	7.823	2.010	1.997
159.501	7.636	2.010	1.998
159.551	7.389	2.010	1.998
159.602	7.671	2.010	1.999
159.651	7.441	2.010	1.999
159.702	7.413	2.010	2.000
159.754	7.463	2.010	2.002
159.804	7.027	2.010	1.999
159.854	8.006	2.010	2.000
159.905	7.390	2.010	2.000
159.955	7.605	2.010	2.000
160.006	7.461	2.010	2.000
160.056	7.528	2.010	2.001
160.106	7.281	2.010	2.001
160.156	7.479	2.010	2.001
160.206	7.566	2.010	2.001
160.257	7.504	2.010	2.001
160.307	7.508	2.010	2.002
160.357	7.009	2.010	2.001
160.408	7.731	2.010	2.002
160.457	7.139	2.010	2.001
160.507	7.910	2.010	2.002
160.557	7.271	2.010	2.002
160.608	7.387	2.010	2.001
160.658	7.705	2.010	2.002
160.708	7.262	2.010	2.002
160.758	7.376	2.010	2.002
160.808	7.611	2.010	2.002
160.858	7.401	2.010	2.002
160.908	7.385	2.010	2.002
160.957	7.538	2.010	2.002
161.008	7.392	2.010	2.002
161.058	7.542	2.010	2.002
161.109	7.562	2.010	2.003
161.158	6.991	2.010	2.001
161.211	7.952	2.010	2.002
161.261	7.358	2.010	2.002
161.312	7.408	2.010	2.001
161.363	7.722	2.010	2.003
161.414	7.122	2.010	2.002
161.464	7.694	2.010	2.002
161.723	7.533	2.010	2.003
161.773	7.194	2.010	2.002
161.824	7.703	2.010	2.003
161.875	7.263	2.010	2.001
161.924	7.967	2.010	2.002
161.975	7.242	2.010	2.002
162.024	7.415	2.010	2.003
162.075	7.402	2.010	2.002
162.126	7.633	2.010	2.002
162.177	7.508	2.010	2.002
162.227	7.511	2.010	2.002
162.276	7.513	2.010	2.002
162.335	7.664	2.010	2.002
162.386	7.557	2.010	2.002
162.436	7.392	2.010	2.002
162.486	7.609	2.010	2.002
162.537	7.382	2.010	2.002
162.588	7.512	2.010	2.002
162.638	7.765	2.010	2.002
162.689	7.491	2.010	2.003
162.739	7.306	2.010	2.002
162.788	7.711	2.010	2.002
162.839	7.430	2.010	2.002
162.890	7.579	2.010	2.002
162.941	7.651	2.010	2.002
162.991	7.488	2.010	2.003
163.041	7.453	2.010	2.002
163.091	7.674	2.010	2.002
163.140	7.631	2.010	2.001
163.191	7.652	2.010	2.003
163.241	7.367	2.010	2.001
163.291	7.788	2.010	2.003
163.341	7.373	2.010	2.002
163.391	7.640	2.010	2.003
163.441	7.373	2.010	2.002
163.491	7.812	2.010	2.002
163.542	7.519	2.010	2.002
163.592	7.586	2.010	2.002
163.642	7.691	2.010	2.002
163.692	7.526	2.010	2.002
163.743	7.594	2.010	2.003
163.793	7.443	2.010	2.003
163.842	7.543	2.010	2.002
163.894	7.745	2.010	2.002
163.944	7.521	2.010	2.001
163.995	7.841	2.010	2.003
164.045	7.378	2.010	2.001
164.096	7.929	2.010	2.002
164.145	7.398	2.010	2.002
164.196	7.600	2.010	2.002
164.246	7.603	2.010	2.003
164.296	7.554	2.010	2.002
164.346	7.743	2.010	2.003
164.397	7.446	2.010	2.002
164.447	7.729	2.010	2.003
164.497	7.481	2.010	2.002
164.547	7.683	2.010	2.002
164.597	7.723	2.010	2.002
164.648	7.560	2.010	2.004
164.698	7.422	2.010	2.004
164.748	7.452	2.010	2.002
164.798	7.826	2.010	2.003
164.848	7.480	2.010	2.003
164.898	7.579	2.010	2.003
164.950	7.632	2.010	2.004
164.999	7.395	2.010	2.003
165.050	7.732	2.010	2.004
165.100	7.454	2.010	2.003
165.150	7.707	2.010	2.004
165.200	7.509	2.010	2.003
165.250	7.628	2.010	2.003
165.301	7.597	2.010	2.003
165.351	7.600	2.010	2.004
165.401	7.551	2.010	2.003
165.451	7.637	2.010	2.004
165.501	7.555	2.010	2.002
165.552	7.792	2.010	2.003
165.602	7.514	2.010	2.004
165.652	7.562	2.010	2.003
165.703	7.749	2.010	2.004
165.753	7.400	2.010	2.003
165.804	7.817	2.010	2.004
165.854	7.455	2.010	2.004
165.904	7.639	2.010	2.004
165.955	7.558	2.010	2.003
166.005	7.694	2.010	2.003
166.055	7.631	2.010	2.003
166.106	7.735	2.010	2.002
166.156	7.776	2.010	2.002
166.206	7.713	2.010	2.005
166.256	7.307	2.010	2.005
166.306	7.518	2.010	2.035
166.357	2.903	2.010	2.082
166.407	0.000	2.010	2.145
166.457	0.000	2.010	2.205
166.507	0.000	2.010	2.222
166.557	0.000	2.010	2.201
166.608	0.000	2.010	2.157
166.657	3.116	2.010	2.102
166.708	6.958	2.010	2.056
166.757	9.066	2.010	2.018
166.808	10.000	2.010	1.995
166.858	10.000	2.010	1.980
166.908	10.000	2.010	1.971
166.959	10.000	2.010	1.965
167.009	10.000	2.010	1.962
167.059	10.000	2.010	1.961
167.109	9.855	2.010	1.962
167.159	9.570	2.010	1.961
167.210	9.919	2.010	1.962
167.259	9.705	2.010	1.963
167.309	9.584	2.010	1.963
167.358	9.679	2.010	1.966
167.409	9.324	2.010	1.966
167.459	9.492	2.010	1.970
167.510	8.966	2.010	1.973
167.561	8.908	2.010	1.978
167.611	8.440	2.010	1.984
167.661	8.018	2.010	1.991
167.712	7.500	2.010	2.000
167.762	6.878	2.010	2.009
167.813	6.211	2.010	2.021
167.863	5.326	2.010	2.034
167.913	4.497	2.010	2.043
167.963	4.324	2.010	2.047
168.013	4.609	2.010	2.046
168.064	5.088	2.010	2.041
168.115	5.870	2.010	2.034
168.165	6.341	2.010	2.024
168.216	7.198	2.010	2.015
168.266	7.721	2.010	2.006
168.316	8.158	2.010	1.998
168.366	8.509	2.010	1.993
168.416	8.603	2.010	1.993
168.467	8.005	2.010	1.993
168.517	8.043	2.010	1.993
168.567	8.100	2.010	1.992
168.618	8.124	2.010	1.994
168.668	7.843	2.010	1.994
168.718	8.062	2.010	1.994
168.768	7.933	2.010	1.996
168.818	7.696	2.010	1.996
168.869	7.896	2.010	1.999
168.919	7.492	2.010	2.000
168.970	7.655	2.010	2.001
169.020	7.517	2.010	2.001
169.071	7.701	2.010	2.002
169.120	7.362	2.010	2.002
169.171	7.563	2.010	2.004
169.221	7.259	2.010	2.003
169.272	7.608	2.010	2.004
169.322	7.412	2.010	2.003
169.372	7.581	2.010	2.004
169.423	7.417	2.010	2.003
169.474	7.635	2.010	2.004
169.523	7.334	2.010	2.004
169.574	7.570	2.010	2.004
169.624	7.406	2.010	2.003
169.675	7.675	2.010	2.003
169.725	7.601	2.010	2.004
169.774	7.364	2.010	2.002
169.824	7.755	2.010	2.004
169.874	7.390	2.010	2.004
169.925	7.472	2.010	2.003
169.974	7.659	2.010	2.003
170.025	7.564	2.010	2.003
170.075	7.566	2.010	2.003
170.125	7.620	2.010	2.003
170.176	7.539	2.010	2.004
170.225	7.470	2.010	2.003
170.276	7.690	2.010	2.003
170.326	7.597	2.010	2.003
170.377	7.599	2.010	2.004
170.428	7.450	2.010	2.004
170.478	7.548	2.010	2.002
170.528	7.755	2.010	2.003
170.579	7.527	2.010	2.003
170.628	7.593	2.010	2.003
170.679	7.646	2.010	2.004
170.729	7.360	2.010	2.004
170.779	7.627	2.010	2.005
170.829	7.411	2.010	2.004
170.879	7.561	2.010	2.004
170.930	7.632	2.010	2.006
170.979	7.259	2.010	2.004
171.030	7.662	2.010	2.004
171.080	7.639	2.010	2.004
171.130	7.525	2.010	2.003
171.181	7.660	2.010	2.005
171.230	7.392	2.010	2.004
171.281	7.577	2.010	2.005
171.332	7.446	2.010	2.005
171.381	7.511	2.010	2.003
171.432	7.766	2.010	2.006
171.482	7.250	2.010	2.005
171.533	7.530	2.010	2.004
171.583	7.653	2.010	2.004
171.633	7.558	2.010	2.005
171.683	7.457	2.010	2.006
171.732	7.368	2.010	2.004
171.783	7.773	2.010	2.005
171.833	7.430	2.010	2.005
171.884	7.580	2.010	2.004
171.934	7.652	2.010	2.004
171.984	7.538	2.010	2.004
172.034	7.572	2.010	2.005
172.085	7.524	2.010	2.005
172.135	7.557	2.010	2.006
172.185	7.406	2.010	2.006
172.235	7.402	2.010	2.005
172.286	7.721	2.010	2.006
172.336	7.410	2.010	2.005
172.386	7.560	2.010	2.005
172.435	7.581	2.010	2.004
172.485	7.652	2.010	2.004
172.537	7.589	2.010	2.004
172.587	7.591	2.010	2.004
172.638	7.593	2.010	2.005
172.688	7.493	2.010	2.005
172.738	7.559	2.010	2.005
172.788	7.612	2.010	2.005
172.839	7.531	2.010	2.005
172.889	7.565	2.010	2.005
172.939	7.566	2.010	2.005
172.990	7.619	2.010	2.005
173.039	7.537	2.010	2.006
173.090	7.471	2.010	2.006
173.140	7.536	2.010	2.006
173.190	7.537	2.010	2.005
173.240	7.641	2.010	2.004
173.290	7.680	2.010	2.005
173.343	7.469	2.010	2.005
173.393	7.665	2.010	2.004
173.443	7.653	2.010	2.005
173.492	7.519	2.010	2.005
173.541	7.639	2.010	2.005
173.591	7.505	2.010	2.006
173.641	7.520	2.010	2.006
173.692	7.504	2.010	2.006
173.743	7.537	2.010	2.005
173.794	7.741	2.010	2.005
173.844	7.513	2.010	2.005
173.894	7.579	2.010	2.005
173.943	7.685	2.010	2.004
173.993	10.000	2.033	2.005
174.044	9.068	2.034	2.002
174.094	9.517	2.035	2.003
174.144	9.196	2.036	2.003
174.195	9.353	2.037	2.005
174.245	9.105	2.038	2.006
174.295	9.306	2.038	2.008
174.345	9.089	2.039	2.010
174.395	9.033	2.040	2.012
174.446	8.981	2.041	2.016
174.496	8.459	2.042	2.020
174.546	8.486	2.042	2.029
174.597	7.397	2.043	2.038
174.647	6.935	2.044	2.046
174.697	6.660	2.045	2.055
174.747	6.098	2.045	2.063
174.798	5.749	2.046	2.068
174.848	5.759	2.047	2.069
174.898	6.206	2.047	2.067
174.949	6.655	2.048	2.062
174.999	7.125	2.049	2.056
175.049	7.653	2.049	2.051
175.099	8.020	2.050	2.046
175.149	8.234	2.051	2.039
175.200	8.791	2.051	2.040
175.250	8.086	2.052	2.039
175.301	8.387	2.052	2.039
175.352	8.193	2.053	2.040
175.402	8.186	2.053	2.042
175.452	7.975	2.054	2.042
175.502	8.149	2.054	2.044
175.552	7.954	2.055	2.044
175.603	8.044	2.055	2.046
175.653	7.929	2.056	2.046
175.703	8.032	2.056	2.046
175.754	8.139	2.056	2.046
175.804	8.028	2.057	2.046
175.854	8.217	2.057	2.046
175.904	8.071	2.057	2.046
175.954	8.155	2.058	2.046
176.004	8.174	2.058	2.046
176.054	8.243	2.058	2.046
176.105	8.278	2.059	2.047
176.155	8.006	2.059	2.047
176.205	8.234	2.059	2.046
176.255	8.368	2.059	2.047
176.305	8.078	2.059	2.048
176.356	8.068	2.059	2.048
176.406	8.173	2.060	2.049
176.456	8.028	2.060	2.047
176.506	8.440	2.060	2.049
176.555	7.992	2.060	2.049
176.607	8.163	2.060	2.050
176.657	7.962	2.060	2.049
176.707	8.350	2.060	2.050
176.757	7.933	2.060	2.049
176.807	8.249	2.060	2.048
176.859	8.300	2.060	2.049
176.909	8.102	2.060	2.049
176.959	8.113	2.060	2.050
177.009	8.090	2.060	2.050
177.059	8.065	2.060	2.051
177.110	7.989	2.059	2.052
177.160	7.840	2.059	2.053
177.210	7.857	2.059	2.052
177.261	8.012	2.059	2.052
177.311	7.884	2.059	2.053
177.361	7.852	2.058	2.052
177.411	7.920	2.058	2.053
177.461	7.718	2.058	2.052
177.512	8.050	2.057	2.053
177.562	7.617	2.057	2.052
177.612	8.015	2.057	2.053
177.663	7.629	2.056	2.052
177.712	7.838	2.056	2.053
177.763	7.698	2.056	2.053
177.813	7.654	2.055	2.053
177.864	7.609	2.055	2.051
177.914	7.921	2.054	2.053
177.964	7.391	2.054	2.052
178.015	7.758	2.053	2.052
178.065	7.549	2.053	2.053
178.114	7.450	2.052	2.053
178.165	7.530	2.052	2.053
178.215	7.465	2.051	2.053
178.265	7.430	2.051	2.053
178.315	7.343	2.050	2.052
178.366	7.489	2.049	2.052
178.417	7.304	2.049	2.052
178.466	7.349	2.048	2.051
178.516	7.479	2.048	2.049
178.567	7.614	2.047	2.048
178.617	7.482	2.046	2.046
178.668	7.727	2.045	2.045
178.717	7.566	2.045	2.044
178.768	7.658	2.044	2.042
178.819	7.739	2.043	2.043
178.869	7.433	2.043	2.042
178.919	7.606	2.042	2.043
178.969	7.309	2.041	2.042
179.020	7.510	2.040	2.041
179.070	7.520	2.039	2.041
179.120	7.323	2.039	2.041
179.171	7.356	2.038	2.041
179.220	7.223	2.037	2.039
179.271	7.558	2.036	2.040
179.322	7.181	2.035	2.038
179.371	7.453	2.034	2.036
179.422	7.486	2.033	2.036
179.471	7.378	2.033	2.033
179.522	7.662	2.032	2.032
179.572	7.507	2.031	2.033
179.622	7.253	2.030	2.033
179.673	7.262	2.029	2.033
179.723	7.156	2.028	2.033
179.774	7.131	2.027	2.032
179.824	7.228	2.026	2.033
179.874	6.868	2.025	2.032
179.923	7.148	2.024	2.031
179.973	7.111	2.023	2.031
180.023	6.954	2.022	2.030
180.073	7.048	2.021	2.029
180.123	7.147	2.020	2.028
180.173	7.027	2.019	2.026
180.223	7.158	2.018	2.027
180.273	6.834	2.017	2.026
180.323	6.941	2.016	2.024
180.373	7.122	2.015	2.025
180.422	6.816	2.014	2.024
180.474	6.936	2.013	2.024
180.524	6.781	2.012	2.024
180.573	6.721	2.011	2.023
180.624	6.809	2.010	2.023
180.673	6.601	2.009	2.021
180.723	6.828	2.008	2.021
180.774	6.704	2.007	2.019
180.825	6.880	2.006	2.018
180.875	6.781	2.005	2.018
180.925	6.520	2.004	2.016
180.976	6.876	2.003	2.016
181.026	6.694	2.002	2.015
181.076	6.671	2.001	2.014
181.126	6.698	2.000	2.014
181.176	6.592	1.999	2.012
181.227	6.700	1.998	2.013
181.277	6.461	1.997	2.012
181.327	6.484	1.996	2.013
181.378	6.340	1.995	2.012
181.428	6.363	1.995	2.012
181.478	6.373	1.994	2.011
181.528	6.402	1.993	2.010
181.578	6.347	1.992	2.010
181.629	6.273	1.991	2.009
181.679	6.285	1.990	2.008
181.729	6.264	1.989	2.007
181.779	6.295	1.988	2.006
181.829	6.294	1.987	2.005
181.880	6.341	1.986	2.005
181.929	6.158	1.985	2.003
181.980	6.355	1.984	2.003
182.030	6.243	1.984	2.002
182.080	6.175	1.983	2.001
182.130	6.345	1.982	2.001
182.180	6.129	1.981	1.999
182.230	6.333	1.980	2.000
182.280	6.017	1.980	2.000
182.330	5.980	1.979	2.000
182.380	6.064	1.978	1.998
182.431	6.150	1.977	1.999
182.481	5.871	1.976	1.998
182.531	6.092	1.976	1.998
182.581	5.915	1.975	1.997
182.630	5.972	1.974	1.997
182.681	5.808	1.974	1.996
182.731	6.050	1.973	1.995
182.782	5.943	1.972	1.995
182.832	5.887	1.972	1.995
182.882	5.761	1.971	1.993
182.932	6.007	1.970	1.993
182.982	5.803	1.970	1.992
183.032	6.019	1.969	1.992
183.083	5.817	1.969	1.991
183.133	5.830	1.968	1.991
183.185	5.859	1.967	1.989
183.236	6.012	1.967	1.989
183.286	5.818	1.966	1.989
183.336	5.784	1.966	1.988
183.387	5.953	1.965	1.988
183.436	5.846	1.965	1.988
183.487	5.781	1.965	1.987
183.537	5.803	1.964	1.986
183.587	5.896	1.964	1.985
183.638	6.023	1.963	1.986
183.688	5.582	1.963	1.985
183.738	5.924	1.963	1.985
183.789	5.769	1.962	1.986
183.839	5.593	1.962	1.985
183.890	5.819	1.962	1.984
183.940	5.805	1.962	1.985
183.989	5.669	1.961	1.984
184.039	5.836	1.961	1.983
184.089	5.772	1.961	1.983
184.140	5.723	1.961	1.982
184.190	5.964	1.961	1.981
184.241	5.839	1.960	1.982
184.291	5.743	1.960	1.980
184.341	6.020	1.960	1.981
184.392	5.646	1.960	1.981
184.441	5.868	1.960	1.981
184.492	5.744	1.960	1.981
184.543	5.769	1.960	1.981
184.594	5.764	1.960	1.980
184.644	5.913	1.960	1.979
184.695	5.965	1.960	1.979
184.745	5.817	1.960	1.978
184.795	6.054	1.960	1.979
184.845	5.721	1.960	1.978
184.896	6.055	1.960	1.977
184.946	6.034	1.961	1.977
184.996	5.974	1.961	1.977
185.046	6.083	1.961	1.977
185.096	5.974	1.961	1.977
185.146	5.965	1.961	1.977
185.197	6.058	1.962	1.977
185.247	6.089	1.962	1.977
185.298	6.019	1.962	1.977
185.348	6.013	1.962	1.977
185.398	6.111	1.963	1.976
185.449	6.197	1.963	1.977
185.499	6.048	1.963	1.976
185.550	6.233	1.964	1.976
185.600	6.189	1.964	1.977
185.650	6.108	1.965	1.977
185.701	6.246	1.965	1.977
185.751	6.135	1.965	1.976
185.801	6.429	1.966	1.976
185.852	6.325	1.966	1.976
185.902	6.455	1.967	1.977
185.952	6.213	1.967	1.977
186.002	6.321	1.968	1.977
186.052	6.435	1.969	1.976
186.103	6.485	1.969	1.976
186.153	6.588	1.970	1.976
186.204	6.457	1.970	1.976
186.254	6.709	1.971	1.977
186.303	6.336	1.972	1.976
186.354	6.825	1.972	1.977
186.403	6.495	1.973	1.976
186.454	6.769	1.974	1.976
186.504	6.847	1.974	1.977
186.554	6.670	1.975	1.976
186.604	6.963	1.976	1.976
186.654	6.960	1.976	1.976
186.704	6.972	1.977	1.976
186.754	6.967	1.978	1.976
186.804	7.046	1.979	1.977
186.855	6.942	1.979	1.976
186.904	7.241	1.980	1.976
186.954	7.088	1.981	1.976
187.004	7.356	1.982	1.976
187.056	7.162	1.983	1.977
187.106	7.205	1.984	1.976
187.156	7.527	1.984	1.976
187.206	7.451	1.985	1.977
187.256	7.352	1.986	1.977
187.306	7.402	1.987	1.977
187.357	7.524	1.988	1.977
187.407	7.682	1.989	1.978
187.457	7.470	1.990	1.977
187.506	7.864	1.991	1.978
187.557	7.538	1.992	1.976
187.607	8.166	1.993	1.976
187.659	7.919	1.994	1.976
187.709	8.011	1.995	1.977
187.758	7.916	1.995	1.978
187.809	7.927	1.996	1.977
187.859	8.239	1.997	1.978
187.909	8.000	1.998	1.979
187.960	8.144	1.999	1.979
188.010	8.188	2.000	1.981
188.061	8.033	2.001	1.980
188.111	8.411	2.002	1.981
188.161	8.173	2.003	1.981
188.211	8.420	2.004	1.982
188.261	8.248	2.005	1.982
188.311	8.392	2.006	1.984
188.362	8.239	2.007	1.985
188.412	8.310	2.008	1.986
188.462	8.320	2.009	1.987
188.513	8.333	2.010	1.988
188.563	8.340	2.011	1.990
188.613	8.145	2.012	1.992
188.663	8.131	2.013	1.995
188.713	7.934	2.014	1.997
188.764	7.931	2.015	2.000
188.813	7.804	2.016	2.003
188.864	7.678	2.017	2.004
188.914	7.771	2.018	2.006
188.965	7.692	2.019	2.008
189.015	7.739	2.020	2.009
189.066	7.728	2.021	2.009
189.116	7.864	2.022	2.011
189.166	7.700	2.023	2.010
189.216	8.024	2.024	2.011
189.266	7.967	2.025	2.011
189.316	8.059	2.026	2.011
189.366	8.066	2.027	2.012
189.416	8.004	2.028	2.012
189.467	8.110	2.029	2.014
189.517	7.995	2.030	2.014
189.567	8.132	2.031	2.015
189.618	8.121	2.032	2.015
189.668	8.241	2.033	2.016
189.718	8.042	2.033	2.016
189.768	8.260	2.034	2.017
189.819	8.114	2.035	2.018
189.869	8.194	2.036	2.017
189.919	8.415	2.037	2.018
189.970	8.303	2.038	2.018
190.020	8.369	2.039	2.019
190.070	8.352	2.039	2.018
190.121	8.571	2.040	2.018
190.171	8.559	2.041	2.018
190.221	8.661	2.042	2.018
190.271	8.628	2.043	2.019
190.321	8.660	2.043	2.018
190.370	8.793	2.044	2.018
190.420	8.809	2.045	2.019
190.471	8.808	2.046	2.021
190.521	8.581	2.046	2.020
190.571	8.976	2.047	2.021
190.620	8.769	2.048	2.020
190.670	9.067	2.048	2.021
190.720	8.759	2.049	2.020
190.770	9.221	2.049	2.021
190.821	8.850	2.050	2.021
190.871	9.051	2.051	2.022
190.922	8.942	2.051	2.022
190.972	9.078	2.052	2.023
191.022	9.015	2.052	2.022
191.072	9.221	2.053	2.025
191.121	8.779	2.053	2.024
191.172	9.182	2.054	2.026
191.221	8.843	2.054	2.025
191.272	9.228	2.055	2.028
191.322	8.705	2.055	2.027
191.373	9.232	2.056	2.028
191.423	8.982	2.056	2.027
191.473	9.263	2.056	2.030
191.524	8.690	2.057	2.028
191.574	9.343	2.057	2.030
191.624	8.867	2.057	2.029
191.675	9.290	2.058	2.031
191.725	8.778	2.058	2.031
191.776	9.111	2.058	2.034
191.827	8.697	2.059	2.034
191.877	8.921	2.059	2.037
191.927	8.562	2.059	2.038
191.977	8.634	2.059	2.040
192.027	8.524	2.059	2.039
192.078	8.750	2.060	2.041
192.128	8.526	2.060	2.040
192.177	8.771	2.060	2.040
192.228	8.714	2.060	2.041
192.277	8.620	2.060	2.040
192.328	8.845	2.060	2.040
192.378	8.654	2.060	2.039
192.429	8.876	2.060	2.041
192.479	8.529	2.060	2.041
192.529	8.643	2.060	2.041
192.580	8.778	2.060	2.041
192.629	8.663	2.060	2.041
192.680	8.696	2.060	2.042
192.730	8.591	2.060	2.042
192.779	8.498	2.059	2.042
192.829	8.695	2.059	2.043
192.879	8.471	2.059	2.042
192.929	8.664	2.059	2.042
192.979	8.539	2.059	2.042
193.029	8.665	2.059	2.042
193.079	8.640	2.058	2.042
193.129	8.545	2.058	2.043
193.179	8.360	2.058	2.042
193.230	8.627	2.057	2.042
193.279	8.465	2.057	2.044
193.330	8.228	2.057	2.044
193.380	8.318	2.056	2.045
193.430	8.228	2.056	2.045
193.480	8.324	2.056	2.045
193.531	8.218	2.055	2.046
193.581	8.124	2.055	2.045
193.632	8.315	2.054	2.046
193.682	8.041	2.054	2.044
193.733	8.313	2.053	2.045
193.783	8.004	2.053	2.045
193.833	8.123	2.052	2.046
193.884	7.959	2.052	2.045
193.934	8.093	2.051	2.046
193.984	7.842	2.051	2.044
194.035	8.208	2.050	2.045
194.085	7.777	2.049	2.044
194.136	8.123	2.049	2.044
194.186	7.825	2.048	2.045
194.236	7.750	2.047	2.045
194.286	7.724	2.047	2.045
194.337	7.766	2.046	2.045
194.387	7.693	2.045	2.045
194.436	7.600	2.045	2.044
194.486	7.743	2.044	2.044
194.538	7.700	2.043	2.045
194.588	7.388	2.042	2.045
194.638	7.522	2.042	2.044
194.688	7.545	2.041	2.044
194.739	7.431	2.040	2.044
194.789	7.331	2.039	2.043
194.839	7.467	2.038	2.043
194.890	7.369	2.038	2.042
194.940	7.388	2.037	2.043
194.990	7.169	2.036	2.042
195.040	7.283	2.035	2.043
195.091	7.113	2.034	2.043
195.141	7.039	2.033	2.042
195.191	7.221	2.032	2.041
195.243	7.183	2.031	2.041
195.292	6.982	2.031	2.041
195.343	7.058	2.030	2.041
195.393	6.937	2.029	2.040
195.443	6.981	2.028	2.038
195.494	7.109	2.027	2.038
195.544	6.890	2.026	2.039
195.594	6.780	2.025	2.037
195.643	6.960	2.024	2.037
195.693	6.767	2.023	2.037
195.744	6.705	2.022	2.036
195.794	6.797	2.021	2.036
195.845	6.737	2.020	2.035
195.895	6.663	2.019	2.035
195.945	6.619	2.018	2.035
195.995	6.472	2.017	2.034
196.045	6.697	2.016	2.033
196.097	6.618	2.015	2.032
196.147	6.615	2.014	2.032
196.197	6.453	2.013	2.030
196.248	6.692	2.012	2.028
196.316	6.671	2.011	2.026
196.365	6.828	2.010	2.026
196.415	6.533	2.009	2.023
196.465	6.828	2.008	2.024
196.515	6.489	2.007	2.022
196.566	6.658	2.006	2.021
196.618	6.714	2.005	2.021
196.669	6.394	2.004	2.019
196.719	6.804	2.003	2.019
196.769	6.431	2.002	2.019
196.819	6.350	2.001	2.019
196.871	6.417	2.000	2.019
196.921	6.293	1.999	2.018
196.972	6.381	1.998	2.016
197.021	6.535	1.997	2.016
197.073	6.273	1.996	2.015
197.123	6.416	1.995	2.013
197.172	6.486	1.994	2.010
197.223	6.663	1.993	2.009
197.273	6.502	1.992	2.009
197.323	6.346	1.991	2.009
197.374	6.286	1.990	2.008
197.424	6.484	1.989	2.009
197.474	6.008	1.988	2.008
197.524	6.369	1.987	2.006
197.575	6.350	1.986	2.007
197.626	6.064	1.986	2.006
197.676	6.276	1.985	2.005
197.726	6.193	1.984	2.004
197.776	6.278	1.983	2.003
197.826	4.027	1.982	2.002
197.876	4.148	1.981	2.001
197.927	4.118	1.981	2.001
197.977	4.023	1.980	1.997
198.029	4.588	1.979	1.993
198.079	4.697	1.978	1.989
198.129	4.855	1.977	1.984
198.180	5.260	1.977	1.981
198.230	5.270	1.976	1.977
198.280	5.485	1.975	1.973
198.330	5.617	1.974	1.970
198.380	5.682	1.974	1.967
198.431	5.806	1.973	1.966
198.481	5.637	1.972	1.966
198.531	5.557	1.972	1.965
198.582	5.641	1.971	1.964
198.632	5.667	1.970	1.963
198.682	5.742	1.970	1.963
198.733	5.480	1.969	1.963
198.783	5.566	1.969	1.963
198.834	5.554	1.968	1.963
198.884	5.393	1.968	1.963
198.934	5.533	1.967	1.964
198.985	5.290	1.967	1.963
199.034	5.464	1.966	1.963
199.085	5.373	1.966	1.963
199.135	5.298	1.965	1.963
199.186	5.308	1.965	1.963
199.236	5.286	1.964	1.963
199.286	5.317	1.964	1.964
199.336	5.163	1.963	1.963
199.386	5.362	1.963	1.964
199.436	5.043	1.963	1.963
199.486	5.258	1.962	1.963
199.536	5.178	1.962	1.964
199.587	5.112	1.962	1.963
199.636	5.286	1.962	1.963
199.687	5.124	1.961	1.963
199.737	5.144	1.961	1.963
199.787	5.134	1.961	1.962
199.837	5.226	1.961	1.963
199.888	5.000	1.961	1.964
199.938	4.989	1.960	1.964
199.988	5.099	1.960	1.962
200.037	5.269	1.960	1.963
200.087	5.082	1.960	1.962
200.136	5.215	1.960	1.963
200.187	4.996	1.960	1.962
200.237	5.194	1.960	1.963
200.288	4.978	1.960	1.963
200.338	5.076	1.960	1.963
200.386	5.079	1.960	1.963
200.437	5.083	1.960	1.963
200.486	5.089	1.960	1.962
200.537	5.297	1.960	1.964
200.587	4.875	1.960	1.963
200.639	5.277	1.961	1.962
200.690	5.211	1.961	1.963
200.741	5.140	1.961	1.962
200.791	5.236	1.961	1.964
200.842	4.965	1.961	1.963
200.892	5.292	1.962	1.964
200.943	5.110	1.962	1.963
200.993	5.344	1.962	1.963
201.043	5.163	1.962	1.963
201.094	5.349	1.963	1.963
201.144	5.306	1.963	1.964
201.194	5.072	1.963	1.963
201.244	5.513	1.964	1.963
201.294	5.323	1.964	1.963
201.346	5.432	1.965	1.962
201.396	5.479	1.965	1.963
201.446	5.320	1.965	1.963
201.498	5.547	1.966	1.963
201.548	5.412	1.966	1.964
201.598	5.406	1.967	1.963
201.648	5.605	1.967	1.963
201.698	5.624	1.968	1.964
201.748	5.421	1.968	1.964
201.798	5.689	1.969	1.963
201.848	5.813	1.970	1.962
201.899	5.905	1.970	1.963
201.949	5.593	1.971	1.963
201.998	5.846	1.971	1.964
202.048	5.751	1.972	1.963
202.098	5.959	1.973	1.963
202.148	5.937	1.973	1.964
202.198	5.878	1.974	1.962
202.250	6.188	1.975	1.962
202.300	6.160	1.976	1.963
202.350	6.072	1.976	1.963
202.400	6.184	1.977	1.964
202.450	6.079	1.978	1.964
202.501	6.176	1.979	1.963
202.551	6.359	1.979	1.963
202.602	6.447	1.980	1.963
202.652	6.333	1.981	1.963
202.702	6.552	1.982	1.963
202.752	6.541	1.983	1.963
202.802	6.544	1.983	1.963
202.852	6.683	1.984	1.963
202.903	6.606	1.985	1.962
202.953	6.930	1.986	1.963
203.004	6.758	1.987	1.963
203.053	6.879	1.988	1.963
203.104	6.837	1.989	1.963
203.154	6.960	1.990	1.963
203.203	7.123	1.991	1.963
203.253	7.066	1.991	1.963
203.303	7.160	1.992	1.964
203.354	7.121	1.993	1.964
203.404	7.196	1.994	1.964
203.453	7.290	1.995	1.965
203.503	7.149	1.996	1.965
203.554	7.394	1.997	1.965
203.604	7.477	1.998	1.965
203.654	7.509	1.999	1.965
203.705	7.525	2.000	1.965
203.754	7.621	2.001	1.965
203.804	7.687	2.002	1.966
203.853	7.545	2.003	1.965
203.904	7.896	2.004	1.966
203.954	7.714	2.005	1.966
204.004	7.878	2.006	1.967
204.054	7.895	2.007	1.968
204.104	7.790	2.008	1.968
204.154	7.987	2.009	1.970
204.203	7.795	2.010	1.969
204.253	8.079	2.011	1.970
204.303	8.012	2.012	1.971
204.354	7.994	2.013	1.971
204.404	8.106	2.014	1.974
204.454	7.848	2.015	1.975
204.504	7.989	2.016	1.975
204.554	8.154	2.017	1.976
204.605	8.071	2.018	1.977
204.655	7.977	2.019	1.976
204.705	8.308	2.020	1.979
204.756	7.907	2.021	1.978
204.806	8.330	2.022	1.979
204.857	8.180	2.023	1.980
204.907	8.290	2.024	1.981
204.957	8.235	2.025	1.981
205.007	8.346	2.026	1.983
205.057	8.188	2.027	1.983
205.108	8.365	2.028	1.982
205.158	8.614	2.029	1.983
205.208	8.478	2.030	1.983
205.259	8.608	2.030	1.984
205.308	8.462	2.031	1.982
205.359	8.962	2.032	1.984
205.409	8.526	2.033	1.984
205.459	8.732	2.034	1.987
205.510	8.423	2.035	1.986
205.560	8.892	2.036	1.989
205.611	8.451	2.037	1.989
205.661	8.663	2.038	1.991
205.711	8.480	2.038	1.995
205.761	8.119	2.039	1.995
205.812	8.515	2.040	1.997
205.862	8.296	2.041	2.000
205.912	8.089	2.042	2.002
205.963	8.127	2.042	2.004
206.013	8.065	2.043	2.005
206.064	8.211	2.044	2.003
206.114	8.530	2.045	2.004
206.164	8.398	2.045	2.004
206.214	8.429	2.046	2.004
206.264	8.510	2.047	2.004
206.317	8.609	2.047	2.005
206.367	8.472	2.048	2.006
206.417	8.411	2.049	2.004
206.467	8.892	2.049	2.004
206.517	8.691	2.050	2.004
206.568	8.818	2.051	2.004
206.619	8.779	2.051	2.005
206.669	8.751	2.052	2.007
206.719	8.602	2.052	2.007
206.768	8.803	2.053	2.008
206.819	8.691	2.053	2.007
206.870	8.977	2.054	2.007
206.920	8.816	2.054	2.007
206.971	8.918	2.055	2.008
207.021	8.800	2.055	2.009
207.071	8.829	2.056	2.009
207.122	8.877	2.056	2.008
207.172	9.145	2.056	2.009
207.222	8.944	2.057	2.008
207.272	9.141	2.057	2.010
207.322	8.798	2.057	2.009
207.374	9.221	2.058	2.012
207.424	8.611	2.058	2.011
207.474	9.115	2.058	2.012
207.524	8.837	2.059	2.012
207.574	9.041	2.059	2.014
207.624	8.672	2.059	2.013
207.674	9.125	2.059	2.015
207.724	8.656	2.059	2.014
207.775	9.053	2.059	2.015
207.825	8.872	2.060	2.014
207.875	9.106	2.060	2.015
207.926	8.872	2.060	2.015
207.976	8.930	2.060	2.016
208.026	8.872	2.060	2.015
208.076	9.050	2.060	2.016
208.127	8.945	2.060	2.017
208.177	8.730	2.060	2.017
208.227	8.848	2.060	2.019
208.277	8.580	2.060	2.020
208.328	8.678	2.060	2.021
208.377	8.537	2.060	2.022
208.428	8.520	2.060	2.023
208.478	8.513	2.060	2.023
208.529	8.526	2.059	2.022
208.579	8.760	2.059	2.021
208.629	8.729	2.059	2.021
208.680	8.659	2.059	2.021
208.730	8.653	2.059	2.021
208.781	8.646	2.058	2.022
208.831	8.587	2.058	2.022
208.881	8.508	2.058	2.022
208.932	8.562	2.057	2.022
208.982	8.602	2.057	2.022
209.032	8.505	2.057	2.022
209.083	8.574	2.056	2.023
209.132	8.372	2.056	2.022
209.183	8.556	2.056	2.021
209.233	8.679	2.055	2.022
209.283	8.428	2.055	2.021
209.334	8.574	2.054	2.022
209.384	8.286	2.054	2.022
209.434	8.496	2.053	2.022
209.484	8.357	2.053	2.022
209.534	8.314	2.052	2.022
209.585	8.372	2.052	2.021
209.635	8.416	2.051	2.021
209.685	8.324	2.051	2.021
209.735	8.347	2.050	2.022
209.786	8.083	2.049	2.022
209.836	8.282	2.049	2.022
209.886	8.083	2.048	2.022
209.937	8.216	2.048	2.021
209.987	8.170	2.047	2.021
210.038	8.203	2.046	2.021
210.089	8.053	2.045	2.021
210.139	8.049	2.045	2.021
210.189	8.012	2.044	2.020
210.239	8.127	2.043	2.020
210.289	8.042	2.042	2.021
210.340	7.818	2.042	2.021
210.390	7.822	2.041	2.022
210.440	7.710	2.040	2.020
210.491	7.934	2.039	2.021
210.542	7.712	2.038	2.020
210.592	7.751	2.038	2.020
210.642	7.725	2.037	2.021
210.692	7.544	2.036	2.019
210.743	7.865	2.035	2.019
210.793	7.576	2.034	2.019
210.843	7.561	2.033	2.018
210.893	7.666	2.032	2.018
210.942	7.469	2.032	2.017
210.993	7.603	2.031	2.018
211.043	7.406	2.030	2.019
211.093	7.235	2.029	2.018
211.145	7.428	2.028	2.018
211.195	7.283	2.027	2.018
211.245	7.128	2.026	2.017
211.296	7.290	2.025	2.018
211.346	7.090	2.024	2.017
211.397	7.219	2.023	2.016
211.447	7.171	2.022	2.017
211.497	6.949	2.021	2.015
211.548	7.261	2.020	2.016
211.599	6.861	2.019	2.015
211.649	7.003	2.018	2.015
211.699	6.984	2.017	2.015
211.749	6.812	2.016	2.013
211.799	7.094	2.015	2.012
211.850	6.993	2.014	2.014
211.900	6.585	2.013	2.012
211.950	6.945	2.012	2.012
212.000	6.724	2.011	2.012
212.050	6.720	2.010	2.009
212.100	6.988	2.009	2.010
212.151	6.651	2.008	2.009
212.201	6.677	2.007	2.010
212.251	6.484	2.006	2.009
212.301	6.696	2.005	2.007
212.351	6.764	2.004	2.007
212.402	6.492	2.003	2.006
212.453	6.668	2.002	2.004
212.503	6.841	2.001	2.004
212.554	6.505	2.000	2.002
212.604	6.839	1.999	2.001
212.654	6.657	1.998	2.002
212.705	6.384	1.997	2.002
212.755	6.526	1.996	2.002
212.805	6.303	1.995	2.002
212.855	6.414	1.994	2.001
212.905	6.396	1.993	2.000
212.956	6.376	1.992	1.999
213.006	6.411	1.991	1.999
213.056	6.260	1.991	1.998
213.107	6.457	1.990	1.998
213.157	6.142	1.989	1.998
213.207	6.154	1.988	1.997
213.257	6.357	1.987	1.997
213.307	6.142	1.986	1.994
213.358	6.443	1.985	1.994
213.408	6.169	1.984	1.994
213.459	6.219	1.983	1.993
213.509	6.208	1.983	1.993
213.559	6.145	1.982	1.991
213.609	6.371	1.981	1.992
213.659	5.975	1.980	1.992
213.709	6.025	1.979	1.990
213.760	6.280	1.979	1.990
213.810	5.941	1.978	1.989
213.860	6.114	1.977	1.990
213.910	5.921	1.976	1.989
213.960	6.114	1.976	1.989
214.010	5.941	1.975	1.988
214.060	6.001	1.974	1.987
214.112	6.093	1.973	1.986
214.162	5.979	1.973	1.987
214.212	5.855	1.972	1.985
214.262	6.105	1.971	1.985
214.313	5.904	1.971	1.984
214.363	6.071	1.970	1.985
214.413	5.650	1.970	1.984
214.463	6.032	1.969	1.983
214.514	5.885	1.968	1.984
214.564	5.718	1.968	1.982
214.614	6.108	1.967	1.982
214.665	5.748	1.967	1.982
214.714	5.833	1.966	1.981
214.765	5.922	1.966	1.981
214.815	5.746	1.965	1.981
214.866	5.802	1.965	1.981
214.916	5.743	1.964	1.979
214.966	5.973	1.964	1.979
215.017	5.786	1.964	1.978
215.067	5.968	1.963	1.978
215.117	5.765	1.963	1.979
215.167	5.725	1.963	1.978
215.217	5.840	1.962	1.978
215.268	5.756	1.962	1.978
215.318	5.789	1.962	1.977
215.367	5.792	1.962	1.977
215.417	5.795	1.961	1.977
215.467	5.748	1.961	1.976
215.517	5.939	1.961	1.976
215.567	5.797	1.961	1.976
215.618	5.786	1.961	1.975
215.668	5.930	1.960	1.976
215.717	5.721	1.960	1.975
215.768	5.931	1.960	1.975
215.817	5.778	1.960	1.975
215.868	5.856	1.960	1.974
215.918	5.974	1.960	1.974
215.969	5.824	1.960	1.974
216.019	5.906	1.960	1.973
216.069	5.975	1.960	1.972
216.119	6.014	1.960	1.974
216.168	5.640	1.960	1.973
216.218	5.996	1.960	1.975
216.269	5.701	1.960	1.973
216.320	6.087	1.960	1.972
216.370	6.037	1.961	1.974
216.420	5.776	1.961	1.973
216.471	6.017	1.961	1.972
216.521	6.117	1.961	1.972
216.571	6.082	1.961	1.972
216.621	5.961	1.962	1.972
216.671	6.040	1.962	1.972
216.722	6.056	1.962	1.972
216.772	6.124	1.962	1.971
216.823	6.210	1.963	1.971
216.873	6.166	1.963	1.972
216.923	6.084	1.963	1.972
216.973	6.170	1.964	1.972
217.023	6.141	1.964	1.971
217.073	6.453	1.965	1.971
217.123	6.213	1.965	1.971
217.173	6.304	1.966	1.972
217.224	6.281	1.966	1.972
217.274	6.290	1.967	1.970
217.324	6.607	1.967	1.972
217.374	6.271	1.968	1.972
217.423	6.431	1.968	1.971
217.474	6.517	1.969	1.972
217.524	6.364	1.969	1.971
217.574	6.649	1.970	1.972
217.625	6.537	1.970	1.972
217.674	6.502	1.971	1.971
217.725	6.808	1.972	1.972
217.775	6.515	1.972	1.972
217.827	6.786	1.973	1.972
217.877	6.764	1.974	1.971
217.927	6.857	1.974	1.971
217.978	6.868	1.975	1.972
218.028	6.861	1.976	1.971
218.078	7.040	1.977	1.972
218.128	6.867	1.977	1.972
218.178	7.062	1.978	1.971
218.228	7.128	1.979	1.971
218.278	7.195	1.980	1.971
218.329	7.263	1.980	1.971
218.379	7.179	1.981	1.972
218.429	7.141	1.982	1.970
218.479	7.597	1.983	1.971
218.529	7.301	1.984	1.970
218.580	7.605	1.985	1.971
218.630	7.410	1.985	1.971
218.679	7.613	1.986	1.971
218.728	7.634	1.987	1.971
218.779	7.641	1.988	1.971
218.831	7.781	1.989	1.972
218.883	7.710	1.990	1.971
218.933	7.882	1.991	1.972
218.984	7.859	1.992	1.972
219.034	7.899	1.993	1.972
219.083	7.938	1.994	1.971
219.134	8.235	1.995	1.973
219.184	7.913	1.996	1.972
219.234	8.188	1.997	1.973
219.285	8.067	1.998	1.973
219.336	8.277	1.999	1.973
219.386	8.359	2.000	1.973
219.437	8.289	2.001	1.975
219.487	8.212	2.002	1.974
219.537	8.457	2.003	1.976
219.587	8.233	2.004	1.976
219.638	8.360	2.005	1.978
219.689	8.287	2.006	1.978
219.739	8.427	2.007	1.978
219.789	8.524	2.008	1.979
219.840	8.388	2.009	1.981
219.890	8.273	2.010	1.981
219.939	8.635	2.011	1.982
219.989	8.378	2.012	1.983
220.040	8.505	2.013	1.983
220.091	8.584	2.014	1.985
220.141	8.476	2.015	1.985
220.192	8.570	2.016	1.985
220.242	8.800	2.017	1.986
220.292	8.544	2.018	1.986
220.343	8.822	2.019	1.987
220.393	8.701	2.020	1.988
220.443	8.760	2.021	1.988
220.494	8.789	2.022	1.988
220.544	8.967	2.023	1.988
220.594	8.998	2.023	1.989
220.646	8.914	2.024	1.990
220.695	8.863	2.025	1.989
220.745	9.160	2.026	1.991
220.796	8.856	2.027	1.991
220.846	9.160	2.028	1.995
220.896	8.626	2.029	1.994
220.947	9.197	2.030	1.997
220.996	8.591	2.031	1.998
221.047	8.966	2.032	2.002
221.096	8.434	2.033	2.002
221.147	8.790	2.034	2.006
221.198	8.306	2.035	2.006
221.251	8.698	2.036	2.007
221.301	8.732	2.036	2.007
221.351	8.717	2.037	2.008
221.401	8.683	2.038	2.008
221.451	8.834	2.039	2.009
221.501	8.733	2.040	2.009
221.551	8.934	2.040	2.009
221.601	8.953	2.041	2.009
221.652	8.955	2.042	2.008
221.701	9.192	2.043	2.010
221.752	8.941	2.044	2.009
221.802	9.220	2.044	2.012
221.852	8.744	2.045	2.010
221.902	9.339	2.046	2.012
221.952	8.917	2.046	2.011
222.001	9.313	2.047	2.015
222.052	8.754	2.048	2.014
222.101	9.220	2.048	2.016
222.151	8.941	2.049	2.015
222.200	9.197	2.050	2.017
222.251	8.953	2.050	2.017
222.301	9.051	2.051	2.018
222.352	9.105	2.051	2.019
222.402	8.971	2.052	2.019
222.451	9.086	2.052	2.021
222.503	8.907	2.053	2.020
222.555	9.299	2.054	2.022
222.607	8.860	2.054	2.021
222.657	9.214	2.055	2.023
222.708	8.979	2.055	2.022
222.760	9.288	2.055	2.024
222.809	8.861	2.056	2.022
222.858	9.377	2.056	2.024
222.911	8.995	2.057	2.022
223.248	9.407	2.059	2.029
223.298	8.319	2.059	2.028
223.497	9.152	2.060	2.033
223.547	8.311	2.060	2.032
223.609	8.933	2.060	2.033
223.660	8.789	2.060	2.033
223.710	8.861	2.060	2.033
223.761	8.868	2.060	2.033
223.811	8.874	2.060	2.033
223.862	8.778	2.060	2.035
223.912	8.641	2.060	2.034
223.961	8.825	2.060	2.035
224.011	8.639	2.060	2.035
224.061	8.737	2.060	2.035
224.112	8.735	2.060	2.036
224.163	8.631	2.060	2.035
224.213	8.844	2.059	2.034
224.264	8.842	2.059	2.036
224.314	8.517	2.059	2.037
224.365	8.571	2.059	2.037
224.415	8.574	2.059	2.037
224.465	8.648	2.058	2.036
224.515	8.757	2.058	2.036
224.567	8.597	2.058	2.037
224.617	8.513	2.058	2.037
224.667	8.512	2.057	2.038
224.717	8.426	2.057	2.037
224.767	8.576	2.057	2.036
224.819	8.642	2.056	2.036
224.870	8.478	2.056	2.036
224.922	8.538	2.055	2.037
224.975	8.385	2.055	2.037
225.027	8.422	2.054	2.037
225.077	8.296	2.054	2.036
225.127	8.489	2.054	2.038
225.177	8.161	2.053	2.037
225.228	8.313	2.052	2.037
225.278	8.355	2.052	2.037
225.328	8.260	2.051	2.035
225.378	8.434	2.051	2.035
225.428	8.324	2.050	2.035
225.478	8.208	2.050	2.035
225.529	8.308	2.049	2.036
225.578	8.003	2.048	2.036
225.629	8.100	2.048	2.036
225.679	8.063	2.047	2.037
225.731	7.924	2.046	2.035
225.781	8.152	2.046	2.035
225.830	8.087	2.045	2.034
225.880	8.456	2.044	2.037
225.930	7.895	2.043	2.034
225.981	8.498	2.043	2.034
226.031	8.199	2.042	2.034
226.081	8.122	2.041	2.033
226.132	8.300	2.040	2.032
226.182	8.223	2.040	2.033
226.232	7.882	2.039	2.033
226.282	8.027	2.038	2.033
226.332	7.879	2.037	2.032
226.384	7.854	2.036	2.032
226.434	7.867	2.035	2.033
226.484	7.524	2.035	2.032
226.535	7.591	2.034	2.032
226.584	7.472	2.033	2.031
226.636	7.698	2.032	2.031
226.686	7.450	2.031	2.031
226.736	7.293	2.030	2.032
226.787	7.101	2.029	2.029
226.837	7.591	2.028	2.031
226.888	6.912	2.027	2.028
226.938	7.496	2.026	2.030
226.988	6.749	2.025	2.029
227.038	7.042	2.024	2.028
227.088	7.042	2.023	2.029
227.138	6.781	2.022	2.026
227.188	7.235	2.021	2.025
227.238	7.071	2.020	2.023
227.289	7.194	2.019	2.023
227.339	7.065	2.018	2.022
227.389	7.029	2.018	2.021
227.439	6.994	2.017	2.021
227.489	6.893	2.016	2.020
227.540	6.951	2.015	2.020
227.590	6.819	2.014	2.018
227.641	6.940	2.012	2.017
227.692	6.967	2.011	2.016
227.742	6.868	2.010	2.017
227.792	6.636	2.009	2.016
227.842	6.827	2.008	2.015
227.892	6.660	2.007	2.013
227.943	6.975	2.006	2.011
227.993	6.976	2.005	2.010
228.043	6.973	2.004	2.011
228.094	6.547	2.003	2.009
228.144	6.867	2.002	2.010
228.194	6.474	2.001	2.009
228.244	6.699	2.000	2.008
228.295	6.596	1.999	2.008
228.346	6.496	1.998	2.007
228.396	6.560	1.998	2.006
228.446	6.559	1.997	2.005
228.497	6.426	1.996	2.003
228.547	6.687	1.995	2.004
228.597	6.330	1.994	2.002
228.648	6.587	1.993	2.002
228.698	6.332	1.992	2.002
228.749	6.236	1.991	2.000
228.799	6.662	1.990	2.000
228.849	6.244	1.989	1.999
228.900	6.376	1.988	1.998
228.950	6.449	1.987	1.997
229.001	6.420	1.986	1.995
229.052	6.556	1.985	1.994
229.103	6.565	1.985	1.992
229.153	6.674	1.984	1.992
229.204	6.424	1.983	1.991
229.254	6.536	1.982	1.991
229.304	6.355	1.981	1.989
229.354	6.794	1.980	1.990
229.404	6.127	1.980	1.989
229.455	6.401	1.979	1.990
229.506	6.096	1.978	1.989
229.556	6.147	1.977	1.989
229.606	6.168	1.976	1.990
229.656	5.832	1.976	1.989
229.707	5.918	1.975	1.989
229.758	6.006	1.974	1.989
229.808	5.773	1.974	1.988
229.858	5.996	1.973	1.989
229.908	5.472	1.972	1.988
229.957	5.765	1.972	1.988
230.008	5.663	1.971	1.987
230.057	5.700	1.970	1.986
230.108	5.892	1.970	1.985
230.158	5.802	1.969	1.983
230.209	5.999	1.969	1.983
230.259	5.782	1.968	1.981
230.308	6.254	1.967	1.980
230.360	5.997	1.967	1.979
230.409	6.244	1.966	1.977
230.460	6.285	1.966	1.976
230.510	6.370	1.965	1.976
230.561	6.258	1.965	1.976
230.611	6.248	1.965	1.976
230.661	6.173	1.964	1.975
230.711	6.328	1.964	1.974
230.762	6.256	1.963	1.977
230.812	5.667	1.963	1.975
230.863	6.278	1.963	1.974
230.913	6.314	1.962	1.975
230.963	5.893	1.962	1.975
231.015	5.993	1.962	1.974
231.065	6.096	1.962	1.974
231.115	6.006	1.961	1.974
231.165	6.048	1.961	1.974
231.215	5.929	1.961	1.975
231.265	5.877	1.961	1.974
231.315	6.022	1.961	1.975
231.365	5.811	1.960	1.973
231.417	6.182	1.960	1.974
231.467	5.819	1.960	1.974
231.517	5.972	1.960	1.974
231.567	5.867	1.960	1.973
231.617	6.088	1.960	1.973
231.668	5.924	1.960	1.973
231.718	6.020	1.960	1.972
231.769	6.182	1.960	1.974
231.819	5.699	1.960	1.973
231.869	6.029	1.960	1.973
231.919	6.035	1.960	1.972
231.969	6.272	1.960	1.972
232.020	6.025	1.960	1.972
232.070	6.232	1.961	1.973
232.120	5.922	1.961	1.972
232.169	6.331	1.961	1.972
232.220	6.154	1.961	1.971
232.270	6.337	1.961	1.973
232.320	5.970	1.962	1.972
232.371	6.416	1.962	1.972
232.421	6.316	1.962	1.972
232.471	6.215	1.962	1.972
232.522	6.376	1.963	1.973
232.572	6.247	1.963	1.973
232.622	6.347	1.963	1.972
232.672	6.515	1.964	1.973
232.722	6.293	1.964	1.972
232.773	6.626	1.965	1.972
232.824	6.509	1.965	1.973
232.874	6.456	1.965	1.972
232.924	6.698	1.966	1.972
232.975	6.682	1.966	1.972
233.025	6.732	1.967	1.971
233.075	7.045	1.967	1.972
233.125	6.839	1.968	1.972
233.176	6.897	1.969	1.972
233.227	6.988	1.969	1.973
233.277	6.852	1.970	1.974
233.327	6.815	1.970	1.973
233.378	7.170	1.971	1.973
233.427	7.071	1.972	1.973
233.478	7.172	1.972	1.973
233.528	7.240	1.973	1.973
233.579	7.310	1.974	1.972
233.630	7.576	1.974	1.973
233.680	7.358	1.975	1.973
233.730	7.529	1.976	1.974
233.780	7.540	1.976	1.976
233.831	7.264	1.977	1.975
233.881	7.664	1.978	1.976
233.932	7.422	1.979	1.976
233.981	7.695	1.980	1.977
234.032	7.552	1.980	1.977
234.081	7.663	1.981	1.976
234.131	8.042	1.982	1.977
234.181	7.737	1.983	1.977
234.231	7.953	1.984	1.976
234.282	8.177	1.985	1.978
234.332	7.874	1.985	1.977
234.384	8.322	1.986	1.978
234.433	8.187	1.987	1.979
234.483	8.151	1.988	1.979
234.533	8.212	1.989	1.980
234.584	8.180	1.990	1.980
234.634	8.436	1.991	1.981
234.684	8.305	1.992	1.984
234.735	7.985	1.993	1.986
234.785	7.947	1.994	1.987
234.835	8.044	1.995	1.988
234.885	7.980	1.996	1.989
234.935	7.883	1.996	1.990
234.987	8.021	1.997	1.992
235.037	7.792	1.998	1.993
235.087	7.892	1.999	1.994
235.137	7.959	2.000	1.993
235.188	8.194	2.001	1.995
235.238	7.870	2.002	1.994
235.288	8.492	2.003	1.995
235.338	8.171	2.004	1.994
235.389	8.535	2.005	1.994
235.439	8.639	2.006	1.995
235.489	8.449	2.007	1.994
235.540	9.007	2.008	1.996
235.590	8.496	2.009	1.994
235.640	9.152	2.010	1.994
235.690	9.159	2.011	1.994
235.740	9.231	2.012	1.995
235.791	9.144	2.013	1.996
235.841	9.214	2.014	1.997
235.892	9.127	2.015	2.000
235.943	8.845	2.016	2.001
235.993	8.878	2.017	2.004
236.043	8.557	2.018	2.007
236.093	8.300	2.019	2.011
236.144	7.954	2.020	2.015
236.195	7.729	2.021	2.020
236.245	7.071	2.022	2.023
236.295	7.135	2.023	2.027
236.346	6.816	2.024	2.029
236.395	6.865	2.025	2.030
236.446	6.901	2.026	2.029
236.497	7.382	2.027	2.027
236.547	7.738	2.028	2.026
236.598	7.766	2.029	2.026
236.648	7.860	2.030	2.025
236.698	8.179	2.031	2.024
236.749	8.207	2.032	2.023
236.799	8.526	2.033	2.025
236.849	8.033	2.034	2.023
236.900	8.865	2.035	2.023
236.950	8.635	2.035	2.023
237.001	8.691	2.036	2.027
237.051	8.159	2.037	2.026
237.101	8.700	2.038	2.028
237.151	8.328	2.039	2.029
237.201	8.346	2.040	2.029
237.252	8.688	2.040	2.029
237.302	8.575	2.041	2.030
237.352	8.524	2.042	2.030
237.403	8.701	2.043	2.031
237.453	8.648	2.043	2.031
237.504	8.661	2.044	2.034
237.555	8.349	2.045	2.035
237.605	8.319	2.046	2.036
237.656	8.360	2.046	2.039
237.706	8.069	2.047	2.039
237.756	8.364	2.048	2.039
237.806	8.430	2.048	2.040
237.857	8.173	2.049	2.041
237.906	8.196	2.050	2.040
237.957	8.552	2.050	2.041
238.007	8.450	2.051	2.041
238.058	8.542	2.051	2.040
238.108	8.729	2.052	2.042
238.158	8.263	2.052	2.040
238.208	8.999	2.053	2.042
238.258	8.433	2.054	2.042
238.309	8.678	2.054	2.044
238.359	8.205	2.054	2.043
238.409	8.707	2.055	2.045
238.460	8.396	2.055	2.046
238.509	8.236	2.056	2.045
238.559	8.768	2.056	2.048
238.609	8.058	2.057	2.047
238.659	8.452	2.057	2.049
238.710	8.196	2.057	2.048
238.760	8.486	2.058	2.048
238.812	8.389	2.058	2.047
238.862	8.644	2.058	2.048
238.912	8.378	2.058	2.049
238.962	8.435	2.059	2.049
239.012	8.490	2.059	2.049
239.062	8.381	2.059	2.048
239.112	8.660	2.059	2.049
239.162	8.515	2.059	2.050
239.213	8.369	2.060	2.050
239.263	8.347	2.060	2.049
239.313	8.618	2.060	2.050
239.364	8.465	2.060	2.050
239.413	8.504	2.060	2.049
239.464	8.574	2.060	2.050
239.514	8.349	2.060	2.050
239.564	8.448	2.060	2.050
239.616	8.574	2.060	2.051
239.666	8.248	2.060	2.051
239.715	8.307	2.060	2.052
239.766	8.138	2.060	2.052
239.817	8.353	2.060	2.052
239.867	8.277	2.060	2.052
239.917	8.264	2.059	2.052
239.968	8.247	2.059	2.051
240.018	8.360	2.059	2.052
240.068	8.015	2.059	2.051
240.118	8.383	2.059	2.051
240.168	8.164	2.058	2.052
240.218	8.041	2.058	2.052
240.269	8.142	2.058	2.053
240.319	7.885	2.058	2.052
240.369	8.015	2.057	2.053
240.419	7.884	2.057	2.052
240.469	7.945	2.057	2.052
240.519	8.005	2.056	2.051
240.569	8.031	2.056	2.051
240.621	7.859	2.055	2.052
240.671	7.716	2.055	2.052
240.720	7.671	2.055	2.051
240.771	7.849	2.054	2.051
240.821	7.835	2.054	2.052
240.871	7.458	2.053	2.052
240.921	7.600	2.053	2.051
240.971	7.578	2.052	2.051
241.021	7.555	2.052	2.050
241.071	7.594	2.051	2.051
241.122	7.404	2.050	2.050
241.173	7.502	2.050	2.050
241.223	7.310	2.049	2.051
241.273	7.147	2.049	2.050
241.322	7.410	2.048	2.048
241.372	7.470	2.047	2.049
241.422	7.075	2.047	2.047
241.473	7.487	2.046	2.049
241.523	6.962	2.045	2.047
241.573	7.279	2.044	2.048
241.623	6.943	2.044	2.047
241.673	7.061	2.043	2.046
241.724	7.174	2.042	2.045
241.774	7.097	2.041	2.045
241.829	7.068	2.041	2.045
241.878	6.928	2.040	2.045
241.929	6.843	2.039	2.044
242.210	6.438	2.034	2.040
242.260	7.179	2.033	2.038
242.309	7.061	2.032	2.036
242.360	7.154	2.032	2.034
242.410	7.196	2.031	2.035
242.460	6.875	2.030	2.035
242.510	6.814	2.029	2.035
242.561	6.583	2.028	2.035
242.612	6.681	2.027	2.035
242.663	6.389	2.026	2.034
242.713	6.680	2.025	2.034
242.763	6.418	2.024	2.033
242.813	6.384	2.023	2.032
242.863	6.512	2.022	2.032
242.913	6.281	2.021	2.032
242.963	6.245	2.020	2.031
243.013	6.176	2.019	2.029
243.063	6.497	2.018	2.028
243.113	6.428	2.017	2.027
243.164	6.452	2.016	2.025
243.214	6.612	2.015	2.022
243.264	6.768	2.014	2.020
243.315	6.828	2.013	2.019
243.366	6.853	2.012	2.017
243.416	6.852	2.011	2.017
243.467	6.683	2.010	2.017
243.516	6.551	2.009	2.017
243.567	6.511	2.008	2.016
243.617	6.442	2.007	2.016
243.668	6.434	2.006	2.016
243.718	6.203	2.005	2.016
243.768	6.068	2.004	2.015
243.819	6.255	2.003	2.015
243.868	6.027	2.002	2.014
243.919	6.246	2.001	2.012
243.969	6.246	2.000	2.013
244.019	5.950	1.999	2.012
244.070	6.009	1.998	2.010
244.120	6.301	1.997	2.008
244.170	6.299	1.996	2.007
244.220	5.058	1.995	2.006
244.270	4.963	1.994	2.005
244.320	5.096	1.993	2.004
244.370	5.166	1.992	2.001
244.421	5.717	1.991	1.998
244.471	6.219	1.991	1.996
244.521	6.198	1.990	1.991
244.571	7.414	1.989	1.989
244.620	7.209	1.988	1.986
244.671	7.735	1.987	1.985
244.721	7.760	1.986	1.985
244.772	7.324	1.985	1.984
244.822	7.379	1.984	1.986
244.871	6.563	1.983	1.985
244.923	6.968	1.983	1.986
244.972	6.385	1.982	1.985
245.022	6.711	1.981	1.985
245.073	6.416	1.980	1.985
245.123	6.159	1.979	1.985
245.174	6.031	1.979	1.985
245.226	5.870	1.978	1.985
245.276	5.816	1.977	1.986
245.326	5.243	1.976	1.985
245.376	5.421	1.976	1.984
245.426	5.602	1.975	1.984
245.477	5.327	1.974	1.984
245.527	5.286	1.973	1.981
245.577	5.899	1.973	1.981
245.628	5.503	1.972	1.980
245.678	5.765	1.971	1.978
245.728	5.899	1.971	1.978
245.778	5.743	1.970	1.976
245.828	6.177	1.970	1.976
245.878	5.768	1.969	1.976
245.929	5.685	1.968	1.976
245.978	5.774	1.968	1.976
246.029	5.405	1.967	1.975
246.079	5.756	1.967	1.975
246.129	5.624	1.966	1.976
246.179	5.300	1.966	1.975
246.230	5.562	1.965	1.974
246.281	5.666	1.965	1.974
246.331	5.290	1.965	1.973
246.381	5.566	1.964	1.972
246.431	5.683	1.964	1.973
246.481	5.414	1.963	1.972
246.531	5.669	1.963	1.971
246.582	5.698	1.963	1.971
246.632	5.669	1.962	1.970
246.682	5.675	1.962	1.969
246.732	5.881	1.962	1.970
246.783	5.440	1.962	1.968
246.833	6.074	1.961	1.969
246.883	5.739	1.961	1.969
246.933	5.635	1.961	1.969
246.984	5.728	1.961	1.969
247.034	5.567	1.961	1.969
247.084	5.670	1.960	1.968
247.137	5.900	1.960	1.968
247.188	5.595	1.960	1.968
247.238	5.644	1.960	1.969
247.288	5.535	1.960	1.967
247.339	5.948	1.960	1.968
247.389	5.623	1.960	1.968
247.440	5.592	1.960	1.968
247.490	5.727	1.960	1.968
247.540	5.801	1.960	1.968
247.591	5.782	1.960	1.969
247.640	5.504	1.960	1.967
247.690	6.012	1.960	1.968
247.741	5.716	1.960	1.969
247.792	5.617	1.961	1.968
247.842	5.909	1.961	1.968
247.892	5.784	1.961	1.966
247.942	6.541	1.961	1.967
247.992	6.066	1.961	1.967
248.043	6.311	1.962	1.967
248.093	6.235	1.962	1.968
248.143	6.130	1.962	1.967
248.194	6.354	1.962	1.966
248.244	6.680	1.963	1.968
248.294	6.261	1.963	1.966
248.344	6.952	1.964	1.967
248.394	6.476	1.964	1.966
248.445	7.076	1.964	1.968
248.495	6.545	1.965	1.966
248.545	7.186	1.965	1.966
248.597	7.151	1.966	1.967
248.646	7.048	1.966	1.966
248.696	7.409	1.967	1.967
248.746	7.349	1.967	1.968
248.796	7.097	1.968	1.968
248.846	7.336	1.968	1.967
248.895	7.643	1.969	1.969
248.946	7.308	1.969	1.969
248.995	7.454	1.970	1.969
249.046	7.709	1.970	1.969
249.097	7.806	1.971	1.970
249.147	7.447	1.972	1.970
249.197	7.741	1.972	1.972
249.247	7.485	1.973	1.972
249.298	7.758	1.974	1.972
249.348	7.704	1.974	1.973
249.398	7.620	1.975	1.975
249.448	7.278	1.976	1.975
249.498	7.720	1.977	1.977
249.549	7.164	1.977	1.978
249.599	7.151	1.978	1.980
249.649	7.047	1.979	1.980
249.700	7.339	1.980	1.982
249.750	6.915	1.981	1.982
249.800	7.176	1.981	1.982
249.850	7.277	1.982	1.983
249.900	7.283	1.983	1.983
249.951	7.425	1.984	1.982
250.001	8.021	1.985	1.983
250.052	7.778	1.986	1.983
250.102	8.051	1.986	1.983
250.151	8.227	1.987	1.982
250.202	8.703	1.988	1.984
250.252	8.303	1.989	1.984
250.303	8.460	1.990	1.984
250.353	8.711	1.991	1.986
250.403	8.509	1.992	1.988
250.454	8.153	1.993	1.989
250.504	8.176	1.994	1.992
250.554	7.620	1.995	1.992
250.604	8.105	1.996	1.996
250.654	7.127	1.997	1.999
250.705	6.940	1.998	2.000
250.755	6.901	1.999	2.002
250.806	6.875	2.000	2.002
250.856	7.004	2.001	2.002
250.906	7.363	2.002	2.001
250.956	7.822	2.003	2.000
251.006	8.216	2.004	2.000
251.056	8.221	2.005	1.999
251.107	8.846	2.006	1.998
251.157	9.116	2.007	1.998
251.208	9.257	2.008	1.997
251.258	9.850	2.009	2.000
251.308	9.142	2.010	1.998
251.358	9.995	2.011	2.000
251.408	9.678	2.012	2.001
251.459	9.724	2.013	2.002
251.509	9.632	2.014	2.003
251.559	9.574	2.015	2.006
251.610	9.133	2.016	2.009
251.659	8.701	2.017	2.011
251.710	8.621	2.018	2.015
251.760	7.644	2.019	2.019
251.811	7.137	2.020	2.022
251.862	6.946	2.021	2.022
251.913	7.204	2.022	2.023
251.962	7.260	2.023	2.023
252.012	7.421	2.024	2.022
252.062	7.938	2.024	2.020
252.111	8.618	2.025	2.021
252.161	8.316	2.026	2.020
252.211	8.896	2.027	2.021
252.262	8.893	2.028	2.022
252.313	8.825	2.029	2.021
252.363	9.203	2.030	2.022
252.413	9.159	2.031	2.019
252.463	10.000	2.032	2.019
252.514	10.000	2.033	2.020
252.564	10.000	2.034	2.020
252.615	10.000	2.035	2.021
252.665	10.000	2.035	2.022
252.715	10.000	2.036	2.023
252.766	10.000	2.037	2.024
252.816	10.000	2.038	2.027
252.866	9.544	2.039	2.029
252.916	9.513	2.040	2.031
252.966	9.153	2.040	2.033
253.017	8.961	2.041	2.035
253.067	8.527	2.042	2.039
253.117	7.865	2.043	2.039
253.168	8.279	2.044	2.041
253.217	7.963	2.044	2.040
253.268	8.566	2.045	2.042
253.319	8.130	2.046	2.041
253.369	8.525	2.046	2.041
253.420	8.631	2.047	2.042
253.470	8.373	2.048	2.041
253.520	9.218	2.048	2.042
253.571	8.861	2.049	2.039
253.620	9.766	2.050	2.042
253.671	8.785	2.050	2.040
253.721	9.872	2.051	2.043
253.772	8.889	2.051	2.040
253.823	10.000	2.052	2.042
253.873	9.299	2.053	2.041
253.923	10.000	2.053	2.042
253.973	9.798	2.054	2.042
254.023	9.765	2.054	2.042
254.074	10.000	2.055	2.041
254.124	10.000	2.055	2.043
254.175	9.719	2.055	2.044
254.225	9.798	2.056	2.045
254.275	9.650	2.056	2.045
254.326	9.824	2.057	2.047
254.377	9.219	2.057	2.049
254.427	8.826	2.057	2.052
254.477	8.238	2.058	2.056
254.528	7.329	2.058	2.059
254.578	6.919	2.058	2.062
254.628	6.382	2.058	2.063
254.678	6.524	2.059	2.062
254.728	6.825	2.059	2.060
254.779	7.477	2.059	2.060
254.829	7.385	2.059	2.058
254.880	7.771	2.059	2.055
254.930	8.842	2.060	2.053
254.980	8.865	2.060	2.050
255.031	9.725	2.060	2.052
255.082	8.938	2.060	2.049
255.132	9.890	2.060	2.053
255.182	8.565	2.060	2.052
255.232	9.121	2.060	2.055
255.283	8.183	2.060	2.054
255.334	8.659	2.060	2.058
255.384	7.317	2.060	2.058
255.434	7.921	2.060	2.061
255.484	6.764	2.060	2.062
255.536	7.001	2.060	2.062
255.586	6.908	2.060	2.061
255.636	7.202	2.059	2.059
255.687	7.651	2.059	2.057
255.738	7.906	2.059	2.056
255.788	8.095	2.059	2.055
255.838	8.310	2.059	2.053
255.888	8.619	2.058	2.054
255.938	8.306	2.058	2.052
255.989	8.668	2.058	2.054
256.039	8.090	2.058	2.054
256.090	8.154	2.057	2.055
256.140	7.695	2.057	2.057
256.190	7.068	2.057	2.056
256.241	7.412	2.056	2.058
256.291	6.876	2.056	2.057
256.342	7.017	2.055	2.055
256.393	7.574	2.055	2.056
256.443	6.966	2.054	2.056
256.493	6.870	2.054	2.055
256.543	7.292	2.054	2.054
256.592	7.422	2.053	2.053
256.643	7.472	2.052	2.051
256.694	7.750	2.052	2.051
256.744	7.577	2.051	2.050
256.795	7.523	2.051	2.050
256.843	7.476	2.050	2.050
256.894	7.415	2.050	2.051
256.944	6.867	2.049	2.050
256.993	7.067	2.048	2.051
257.043	6.671	2.048	2.050
257.093	6.897	2.047	2.051
257.145	6.367	2.046	2.049
257.195	6.807	2.046	2.048
257.244	6.897	2.045	2.046
257.295	7.099	2.044	2.046
257.345	6.888	2.044	2.045
257.396	7.089	2.043	2.044
257.446	7.100	2.042	2.043
257.497	6.939	2.041	2.042
257.547	7.041	2.040	2.041
257.597	7.268	2.040	2.041
257.648	6.840	2.039	2.040
257.698	7.098	2.038	2.038
257.748	7.288	2.037	2.038
257.799	7.048	2.036	2.038
257.849	6.941	2.035	2.039
257.900	6.342	2.035	2.039
257.949	6.394	2.034	2.038
258.000	6.371	2.033	2.037
258.050	6.322	2.032	2.036
258.100	6.366	2.031	2.036
258.151	6.274	2.030	2.033
258.202	6.699	2.029	2.033
258.252	6.484	2.028	2.030
258.303	6.905	2.027	2.029
258.353	6.882	2.026	2.028
258.403	6.853	2.025	2.026
258.454	7.142	2.024	2.027
258.504	6.464	2.023	2.027
258.555	6.460	2.022	2.027
258.605	6.232	2.021	2.027
258.655	5.937	2.020	2.028
258.705	5.673	2.019	2.027
258.755	5.799	2.018	2.027
258.806	5.498	2.017	2.024
258.856	6.176	2.016	2.023
258.906	5.975	2.015	2.020
258.957	6.545	2.014	2.016
259.007	7.229	2.013	2.015
259.057	7.029	2.012	2.011
259.107	7.675	2.011	2.009
259.158	7.921	2.010	2.009
259.208	7.466	2.009	2.008
259.258	7.559	2.008	2.008
259.308	7.164	2.007	2.008
259.358	6.997	2.006	2.008
259.408	6.797	2.005	2.008
259.459	6.690	2.004	2.008
259.509	6.264	2.003	2.009
259.559	5.934	2.002	2.009
259.609	5.898	2.001	2.011
259.659	5.081	2.001	2.009
259.710	5.559	2.000	2.008
259.760	5.398	1.999	2.008
259.810	5.331	1.998	2.007
259.861	5.261	1.997	2.005
259.911	5.491	1.996	2.004
259.961	5.624	1.995	2.001
260.012	6.042	1.994	2.000
260.062	6.085	1.993	1.996
260.112	6.803	1.992	1.993
260.163	7.138	1.991	1.990
260.211	7.462	1.990	1.989
260.262	7.491	1.989	1.990
260.312	6.858	1.988	1.989
260.363	7.161	1.987	1.989
260.412	6.566	1.986	1.988
260.463	6.874	1.985	1.989
260.513	6.476	1.985	1.988
260.563	6.435	1.984	1.988
260.612	6.236	1.983	1.989
260.662	5.678	1.982	1.989
260.713	5.736	1.981	1.990
260.763	5.248	1.980	1.989
260.813	5.574	1.980	1.989
260.863	5.285	1.979	1.989
260.913	5.129	1.978	1.988
260.963	5.268	1.977	1.988
261.012	5.120	1.977	1.986
261.062	5.328	1.976	1.985
261.113	5.437	1.975	1.983
261.163	5.752	1.974	1.983
261.212	5.420	1.974	1.981
261.263	5.959	1.973	1.980
261.313	5.896	1.972	1.978
261.363	6.058	1.972	1.978
261.413	5.898	1.971	1.977
261.463	5.937	1.970	1.978
261.514	5.554	1.970	1.975
261.564	6.476	1.969	1.976
261.615	5.744	1.969	1.976
261.665	5.728	1.968	1.976
261.715	5.718	1.968	1.976
261.764	5.386	1.967	1.976
261.815	5.349	1.967	1.975
261.866	5.541	1.966	1.975
261.916	5.351	1.966	1.976
261.966	5.162	1.965	1.975
262.017	5.300	1.965	1.976
262.067	4.860	1.964	1.974
262.117	5.463	1.964	1.973
262.167	5.485	1.964	1.972
262.217	5.608	1.963	1.971
262.268	5.634	1.963	1.970
262.318	5.799	1.962	1.971
262.368	5.446	1.962	1.969
262.419	6.035	1.962	1.971
262.469	5.303	1.962	1.971
262.520	5.416	1.961	1.971
262.570	5.371	1.961	1.970
262.620	5.427	1.961	1.971
262.671	5.163	1.961	1.970
262.721	5.388	1.961	1.969
262.771	5.685	1.960	1.970
262.822	5.335	1.960	1.969
262.872	5.475	1.960	1.969
262.922	5.621	1.960	1.968
262.972	5.738	1.960	1.968
263.022	5.762	1.960	1.969
263.073	5.336	1.960	1.968
263.123	5.756	1.960	1.969
263.173	5.368	1.960	1.969
263.224	5.570	1.960	1.967
263.274	5.940	1.960	1.967
263.324	5.923	1.960	1.967
263.374	5.812	1.960	1.967
263.424	5.966	1.960	1.967
263.475	5.961	1.961	1.968
263.525	5.798	1.961	1.967
263.576	6.190	1.961	1.968
263.626	5.841	1.961	1.968
263.676	5.982	1.961	1.966
263.726	6.518	1.962	1.967
263.776	6.114	1.962	1.966
263.827	6.559	1.962	1.967
263.878	6.233	1.962	1.967
263.928	6.490	1.963	1.967
263.978	6.329	1.963	1.967
264.028	6.660	1.963	1.966
264.077	6.964	1.964	1.967
264.127	6.650	1.964	1.967
264.177	6.732	1.964	1.967
264.228	6.950	1.965	1.967
264.278	6.910	1.965	1.967
264.328	7.036	1.966	1.967
264.378	7.231	1.966	1.967
264.428	7.201	1.967	1.967
264.477	7.336	1.967	1.969
264.528	6.864	1.968	1.968
264.578	7.556	1.968	1.967
264.628	7.831	1.969	1.968
264.678	7.561	1.970	1.967
264.727	7.876	1.970	1.967
264.778	8.164	1.971	1.969
264.828	7.643	1.971	1.972
264.879	7.098	1.972	1.968
264.929	8.495	1.973	1.969
264.979	8.112	1.973	1.969
265.031	8.226	1.974	1.968
265.082	8.695	1.975	1.974
265.131	7.170	1.975	1.971
265.182	8.725	1.976	1.972
265.232	8.297	1.977	1.974
265.283	7.970	1.978	1.976
265.333	7.439	1.979	1.974
265.383	8.769	1.979	1.975
265.433	8.346	1.980	1.981
265.483	6.655	1.981	1.979
265.533	8.056	1.982	1.981
265.583	7.443	1.983	1.986
265.634	6.259	1.983	1.989
265.685	6.168	1.984	1.990
265.735	6.303	1.985	1.988
265.785	7.252	1.986	1.989
265.836	6.627	1.987	1.992
265.885	6.111	1.988	1.988
265.935	7.859	1.989	1.987
265.985	8.108	1.990	1.991
266.036	6.776	1.991	1.989
266.086	7.896	1.991	1.984
266.136	9.582	1.992	1.989
266.186	7.755	1.993	1.988
266.236	8.825	1.994	1.985
266.286	9.669	1.995	1.986
266.336	9.409	1.996	1.988
266.387	8.995	1.997	1.988
266.437	9.317	1.998	1.986
266.487	10.000	1.999	1.989
266.538	9.431	2.000	1.991
266.588	9.105	2.001	1.992
266.638	9.175	2.002	1.988
266.688	10.000	2.003	1.994
266.740	8.818	2.004	1.999
266.790	8.128	2.005	2.003
266.840	7.450	2.006	2.003
266.890	8.105	2.007	2.010
266.940	6.256	2.008	2.015
266.991	5.784	2.009	2.020
267.040	4.951	2.010	2.018
267.091	6.136	2.011	2.024
267.141	4.417	2.012	2.024
267.192	5.300	2.013	2.022
267.242	5.954	2.014	2.016
267.292	7.843	2.015	2.016
267.343	7.428	2.016	2.012
267.393	8.798	2.017	2.009
267.442	9.586	2.018	2.005
267.493	10.000	2.019	2.005
267.543	10.000	2.020	2.004
267.594	10.000	2.021	2.004
267.644	10.000	2.022	2.005
267.694	10.000	2.023	2.006
267.744	10.000	2.024	2.008
267.793	10.000	2.025	2.008
267.844	10.000	2.026	2.015
267.893	9.196	2.027	2.018
267.944	8.987	2.028	2.024
267.994	7.671	2.029	2.034
268.044	5.642	2.030	2.043
268.094	4.033	2.031	2.055
268.144	1.508	2.031	2.062
268.194	0.736	2.032	2.068
268.243	0.000	2.033	2.065
268.294	1.586	2.034	2.059
268.344	3.093	2.035	2.048
268.394	5.928	2.036	2.033
268.444	9.708	2.037	2.015
268.494	10.000	2.038	1.999
268.543	10.000	2.038	1.988
268.593	10.000	2.039	1.980
268.644	10.000	2.040	1.977
268.694	10.000	2.041	1.975
268.745	10.000	2.042	1.974
268.794	10.000	2.042	1.973
268.844	10.000	2.043	1.974
268.895	10.000	2.044	1.975
268.944	10.000	2.045	1.975
268.995	10.000	2.045	1.978
269.044	10.000	2.046	1.980
269.095	10.000	2.047	1.983
269.145	10.000	2.047	1.986
269.195	10.000	2.048	1.992
269.245	10.000	2.049	2.000
269.295	10.000	2.049	2.007
269.345	10.000	2.050	2.019
269.396	10.000	2.051	2.032
269.447	10.000	2.051	2.050
269.497	6.281	2.052	2.072
269.547	1.473	2.052	2.098
269.597	0.000	2.053	2.123
269.648	0.000	2.053	2.134
269.697	0.000	2.054	2.124
269.748	0.000	2.054	2.113
269.798	0.000	2.055	2.094
269.849	1.626	2.055	2.066
269.899	8.216	2.056	2.038
269.949	10.000	2.056	2.014
270.000	10.000	2.056	1.995
270.049	10.000	2.057	1.983
270.100	10.000	2.057	1.975
270.150	10.000	2.057	1.971
270.200	10.000	2.058	1.969
270.251	10.000	2.058	1.966
270.300	10.000	2.058	1.965
270.351	10.000	2.059	1.965
270.401	10.000	2.059	1.966
270.451	10.000	2.059	1.966
270.502	10.000	2.059	1.967
270.552	10.000	2.059	1.968
270.603	10.000	2.059	1.971
270.653	10.000	2.060	1.973
270.703	10.000	2.060	1.976
270.753	10.000	2.060	1.981
270.803	10.000	2.060	1.987
270.854	10.000	2.060	1.994
270.904	10.000	2.060	2.003
270.954	10.000	2.060	2.016
271.005	10.000	2.060	2.032
271.055	10.000	2.060	2.054
271.105	6.773	2.060	2.081
271.155	0.996	2.060	2.114
271.205	0.000	2.060	2.151
271.256	0.000	2.060	2.175
271.306	0.000	2.060	2.167
271.357	0.000	2.059	2.154
271.406	0.000	2.059	2.130
271.456	0.000	2.059	2.096
271.506	3.853	2.059	2.058
271.556	10.000	2.059	2.028
271.607	10.000	2.058	2.002
271.657	10.000	2.058	1.988
271.707	10.000	2.058	1.978
271.758	10.000	2.057	1.974
271.808	10.000	2.057	1.971
271.858	10.000	2.057	1.968
271.908	10.000	2.056	1.968
271.958	10.000	2.056	1.966
272.009	10.000	2.056	1.967
272.059	10.000	2.055	1.969
272.110	10.000	2.055	1.970
272.160	10.000	2.054	1.972
272.210	10.000	2.054	1.974
272.260	10.000	2.053	1.978
272.309	10.000	2.053	1.984
272.359	10.000	2.052	1.989
272.410	10.000	2.052	1.997
272.460	10.000	2.051	2.008
272.511	10.000	2.051	2.022
272.560	10.000	2.050	2.041
272.610	7.655	2.050	2.063
272.660	2.843	2.049	2.094
272.711	0.000	2.048	2.127
272.761	0.000	2.048	2.151
272.811	0.000	2.047	2.145
272.861	0.000	2.046	2.135
272.910	0.000	2.046	2.112
272.960	0.000	2.045	2.081
273.010	3.603	2.044	2.048
273.060	10.000	2.043	2.023
273.110	10.000	2.043	1.998
273.161	10.000	2.042	1.986
273.211	10.000	2.041	1.978
273.261	10.000	2.040	1.973
273.311	10.000	2.040	1.971
273.360	10.000	2.039	1.967
273.411	10.000	2.038	1.967
273.461	10.000	2.037	1.967
273.511	10.000	2.036	1.967
273.561	10.000	2.035	1.968
273.611	10.000	2.034	1.969
273.660	10.000	2.034	1.971
273.710	10.000	2.033	1.974
273.761	10.000	2.032	1.977
273.810	10.000	2.031	1.982
273.861	10.000	2.030	1.988
273.911	10.000	2.029	1.995
273.961	10.000	2.028	2.005
274.011	10.000	2.027	2.019
274.060	7.983	2.026	2.036
274.111	4.075	2.025	2.058
274.162	0.000	2.024	2.083
274.213	0.000	2.023	2.103
274.263	0.000	2.022	2.108
274.313	0.000	2.021	2.098
274.364	0.000	2.020	2.085
274.414	0.000	2.019	2.063
274.464	1.030	2.018	2.040
274.514	5.737	2.017	2.020
274.564	9.018	2.016	2.001
274.614	10.000	2.015	1.986
274.664	10.000	2.015	1.977
274.715	10.000	2.013	1.971
274.765	10.000	2.012	1.968
274.815	10.000	2.011	1.967
274.865	10.000	2.010	1.966
274.915	10.000	2.009	1.966
274.965	10.000	2.008	1.968
275.016	10.000	2.007	1.968
275.067	10.000	2.006	1.969
275.118	10.000	2.005	1.971
275.168	10.000	2.004	1.974
275.217	10.000	2.003	1.977
275.267	10.000	2.002	1.980
275.317	10.000	2.001	1.986
275.368	10.000	2.000	1.993
275.418	8.573	2.000	2.003
275.469	5.857	1.999	2.018
275.519	2.223	1.998	2.036
275.569	0.000	1.997	2.056
275.619	0.000	1.996	2.071
275.669	0.000	1.995	2.071
275.720	0.000	1.994	2.065
275.770	0.000	1.993	2.050
275.820	0.000	1.992	2.031
275.871	1.627	1.991	2.015
275.921	4.337	1.990	1.999
275.971	7.340	1.989	1.988
276.021	8.981	1.988	1.978
276.071	10.000	1.987	1.972
276.122	10.000	1.986	1.966
276.173	10.000	1.985	1.967
276.223	10.000	1.985	1.966
276.273	10.000	1.984	1.968
276.323	10.000	1.983	1.969
276.373	10.000	1.982	1.970
276.423	9.911	1.981	1.970
276.474	9.847	1.980	1.973
276.525	8.911	1.980	1.974
276.576	8.718	1.979	1.978
276.626	7.294	1.978	1.981
276.676	6.719	1.977	1.987
276.726	5.202	1.976	1.991
276.775	4.233	1.976	1.996
276.827	3.099	1.975	2.004
276.877	1.176	1.974	2.007
276.928	0.807	1.974	2.008
276.978	0.787	1.973	2.004
277.028	1.689	1.972	2.000
277.079	2.486	1.972	1.994
277.129	3.892	1.971	1.987
277.179	5.165	1.970	1.980
277.230	6.490	1.970	1.975
277.280	7.038	1.969	1.970
277.331	7.922	1.969	1.969
277.381	7.823	1.968	1.965
277.431	8.726	1.967	1.968
277.481	7.356	1.967	1.967
277.531	7.648	1.966	1.968
277.581	7.422	1.966	1.963
277.631	8.632	1.966	1.963
277.682	8.218	1.965	1.967
277.733	6.936	1.965	1.966
277.782	7.534	1.964	1.963
277.832	8.139	1.964	1.965
277.884	7.321	1.963	1.964
277.934	7.603	1.963	1.964
277.985	7.567	1.963	1.965
278.035	7.181	1.962	1.967
278.085	6.634	1.962	1.967
278.136	6.676	1.962	1.969
278.186	6.266	1.962	1.970
278.236	5.860	1.961	1.971
278.286	5.880	1.961	1.971
278.336	5.677	1.961	1.972
278.387	5.510	1.961	1.972
278.437	5.541	1.961	1.971
278.487	5.805	1.960	1.971
278.536	5.683	1.960	1.970
278.586	5.955	1.960	1.971
278.636	5.547	1.960	1.971
278.686	5.729	1.960	1.969
278.737	6.173	1.960	1.968
278.786	6.205	1.960	1.967
278.837	6.527	1.960	1.966
278.887	6.598	1.960	1.967
278.937	6.248	1.960	1.966
278.988	6.843	1.960	1.966
279.037	6.700	1.960	1.967
279.088	6.235	1.960	1.965
279.138	7.200	1.960	1.967
279.189	6.387	1.961	1.966
279.239	6.708	1.961	1.967
279.289	6.516	1.961	1.965
279.339	7.110	1.961	1.966
279.389	6.698	1.961	1.966
279.440	7.039	1.962	1.966
279.490	6.832	1.962	1.967
279.540	6.856	1.962	1.965
279.591	7.434	1.962	1.967
279.641	6.656	1.963	1.967
279.691	6.951	1.963	1.966
279.741	7.413	1.963	1.967
279.791	7.065	1.964	1.967
279.842	7.146	1.964	1.966
279.892	7.651	1.965	1.968
279.942	7.022	1.965	1.968
279.992	7.405	1.965	1.967
280.042	7.662	1.966	1.967
280.093	7.696	1.966	1.967
280.143	7.895	1.967	1.967
280.193	7.772	1.967	1.968
280.244	7.656	1.968	1.967
280.293	8.156	1.968	1.969
280.344	7.689	1.969	1.969
280.393	8.062	1.970	1.968
280.443	8.444	1.970	1.968
280.494	8.280	1.971	1.969
280.544	8.179	1.971	1.970
280.595	8.119	1.972	1.971
280.645	8.252	1.973	1.972
280.696	7.939	1.973	1.972
280.745	8.432	1.974	1.972
280.795	8.411	1.975	1.973
280.845	8.395	1.976	1.973
280.895	8.511	1.976	1.974
280.946	8.310	1.977	1.976
280.996	8.201	1.978	1.976
281.046	8.292	1.979	1.978
281.097	7.937	1.979	1.979
281.147	7.899	1.980	1.980
281.197	7.899	1.981	1.982
281.247	7.577	1.982	1.982
281.297	7.939	1.983	1.982
281.347	8.207	1.984	1.984
281.397	7.663	1.984	1.985
281.448	7.874	1.985	1.985
281.498	8.114	1.986	1.985
281.548	8.292	1.987	1.984
281.599	8.670	1.988	1.987
281.648	8.097	1.989	1.985
281.700	8.906	1.990	1.986
281.750	8.673	1.991	1.985
281.800	9.349	1.992	1.987
281.851	8.927	1.993	1.986
281.901	9.570	1.993	1.987
281.951	9.274	1.994	1.988
282.001	9.402	1.995	1.988
282.051	9.466	1.996	1.989
282.102	9.343	1.997	1.991
282.153	9.185	1.998	1.993
282.203	8.859	1.999	1.997
282.254	8.222	2.000	2.001
282.304	7.696	2.001	2.003
282.354	7.373	2.002	2.007
282.404	6.692	2.003	2.011
282.454	6.109	2.004	2.015
282.504	5.622	2.005	2.018
282.554	5.103	2.006	2.020
282.605	5.177	2.007	2.019
282.656	5.925	2.008	2.016
282.706	6.777	2.009	2.013
282.756	7.691	2.010	2.010
282.806	8.542	2.011	2.007
282.857	9.295	2.012	2.003
282.908	10.000	2.013	2.001
282.959	10.000	2.014	2.001
283.008	10.000	2.015	2.001
283.058	10.000	2.016	2.002
283.108	10.000	2.017	2.003
283.158	10.000	2.018	2.005
283.209	10.000	2.019	2.008
283.259	10.000	2.020	2.010
283.321	10.000	2.021	2.015
283.371	8.823	2.022	2.017
283.420	8.979	2.023	2.023
283.471	7.618	2.024	2.028
283.521	7.025	2.025	2.031
283.572	6.509	2.026	2.035
283.622	5.907	2.027	2.040
283.673	5.224	2.028	2.041
283.723	5.528	2.029	2.040
283.774	6.101	2.030	2.038
283.824	6.771	2.031	2.034
283.875	7.728	2.032	2.030
283.925	8.953	2.033	2.025
283.975	10.000	2.034	2.021
284.025	10.000	2.035	2.018
284.075	10.000	2.035	2.017
284.125	10.000	2.036	2.019
284.175	10.000	2.037	2.020
284.225	10.000	2.038	2.022
284.275	10.000	2.039	2.023
284.326	10.000	2.040	2.026
284.376	10.000	2.040	2.031
284.427	9.408	2.041	2.035
284.476	8.825	2.042	2.039
284.527	8.249	2.043	2.048
284.576	6.025	2.043	2.054
284.626	5.342	2.044	2.063
284.676	3.529	2.045	2.067
284.727	3.156	2.046	2.068
284.777	3.441	2.046	2.062
284.827	5.523	2.047	2.050
284.877	8.744	2.048	2.039
284.927	10.000	2.048	2.026
284.977	10.000	2.049	2.010
285.028	10.000	2.050	1.999
285.078	10.000	2.050	1.996
285.128	10.000	2.051	1.993
285.179	10.000	2.051	1.991
285.228	10.000	2.052	1.992
285.279	10.000	2.052	1.992
285.330	10.000	2.053	1.996
285.379	10.000	2.053	2.000
285.430	10.000	2.054	2.004
285.481	10.000	2.054	2.011
285.531	10.000	2.055	2.018
285.582	10.000	2.055	2.029
285.633	10.000	2.056	2.043
285.683	9.210	2.056	2.058
285.733	6.323	2.057	2.076
285.783	2.485	2.057	2.096
285.841	0.000	2.057	2.117
285.891	0.000	2.058	2.119
285.941	0.000	2.058	2.106
285.991	0.000	2.058	2.095
286.041	1.682	2.058	2.077
286.091	6.016	2.059	2.053
286.141	10.000	2.059	2.027
286.191	10.000	2.059	2.003
286.241	10.000	2.059	1.990
286.292	10.000	2.059	1.979
286.343	10.000	2.060	1.975
286.394	10.000	2.060	1.970
286.445	10.000	2.060	1.968
286.494	10.000	2.060	1.968
286.545	10.000	2.060	1.968
286.595	10.000	2.060	1.969
286.646	10.000	2.060	1.970
286.696	10.000	2.060	1.973
286.745	10.000	2.060	1.975
286.795	10.000	2.060	1.978
286.844	10.000	2.060	1.985
286.895	10.000	2.060	1.992
286.946	10.000	2.060	2.001
286.995	10.000	2.060	2.013
287.046	10.000	2.059	2.028
287.095	10.000	2.059	2.048
287.146	8.155	2.059	2.070
287.196	3.550	2.059	2.100
287.245	0.000	2.059	2.130
287.296	0.000	2.058	2.150
287.346	0.000	2.058	2.141
287.397	0.000	2.058	2.128
287.450	0.000	2.058	2.108
287.500	0.000	2.057	2.078
287.551	6.490	2.057	2.046
287.602	10.000	2.057	2.019
287.652	10.000	2.056	1.997
287.701	10.000	2.056	1.984
287.752	10.000	2.055	1.974
287.802	10.000	2.055	1.970
287.852	10.000	2.055	1.967
287.901	10.000	2.054	1.965
287.951	10.000	2.054	1.965
288.001	10.000	2.053	1.963
288.052	10.000	2.053	1.964
288.102	10.000	2.052	1.965
288.152	10.000	2.051	1.966
288.203	10.000	2.051	1.969
288.252	10.000	2.050	1.971
288.302	10.000	2.050	1.975
288.352	10.000	2.049	1.981
288.403	10.000	2.048	1.990
288.453	10.000	2.048	2.001
288.503	10.000	2.047	2.017
288.554	10.000	2.046	2.037
288.604	5.656	2.046	2.062
288.654	0.000	2.045	2.099
288.704	0.000	2.044	2.139
288.755	0.000	2.044	2.166
288.805	0.000	2.043	2.162
288.855	0.000	2.042	2.149
288.905	0.000	2.041	2.122
288.956	0.000	2.041	2.086
289.006	5.628	2.040	2.050
289.056	10.000	2.039	2.022
289.106	10.000	2.038	1.998
289.155	10.000	2.037	1.984
289.205	10.000	2.036	1.973
289.255	10.000	2.036	1.969
289.306	10.000	2.035	1.966
289.356	10.000	2.034	1.965
289.405	10.000	2.033	1.963
289.456	10.000	2.032	1.964
289.506	10.000	2.031	1.964
289.557	10.000	2.030	1.965
289.607	10.000	2.029	1.967
289.657	10.000	2.028	1.970
289.708	10.000	2.027	1.973
289.757	10.000	2.026	1.978
289.807	10.000	2.026	1.984
289.857	10.000	2.025	1.991
289.908	10.000	2.024	2.003
289.957	9.454	2.023	2.020
290.007	4.887	2.022	2.040
290.057	0.000	2.021	2.071
290.106	0.000	2.020	2.104
290.157	0.000	2.019	2.135
290.207	0.000	2.018	2.137
290.258	0.000	2.017	2.126
290.308	0.000	2.016	2.102
290.359	0.000	2.015	2.071
290.409	2.152	2.014	2.043
290.459	7.343	2.013	2.018
290.510	10.000	2.012	1.998
290.559	10.000	2.011	1.981
290.610	10.000	2.010	1.971
290.660	10.000	2.009	1.966
290.710	10.000	2.008	1.963
290.760	10.000	2.007	1.961
290.810	10.000	2.006	1.961
290.860	10.000	2.005	1.961
290.909	10.000	2.004	1.961
290.960	10.000	2.003	1.961
291.010	10.000	2.002	1.963
291.060	10.000	2.001	1.964
291.111	10.000	2.000	1.967
291.161	10.000	1.999	1.971
291.212	10.000	1.998	1.974
291.261	10.000	1.997	1.980
291.312	9.731	1.996	1.987
291.362	7.893	1.995	1.999
291.412	4.581	1.994	2.016
291.463	0.000	1.993	2.037
291.513	0.000	1.992	2.064
291.563	0.000	1.991	2.086
291.612	0.000	1.990	2.094
291.662	0.000	1.989	2.087
291.713	0.000	1.988	2.069
291.763	0.000	1.988	2.047
291.814	0.000	1.987	2.024
291.864	4.610	1.986	2.005
291.914	7.490	1.985	1.991
291.965	9.016	1.984	1.978
292.014	10.000	1.983	1.970
292.064	10.000	1.982	1.963
292.115	10.000	1.981	1.962
292.165	10.000	1.981	1.962
292.216	10.000	1.980	1.961
292.266	10.000	1.979	1.963
292.317	10.000	1.978	1.962
292.367	10.000	1.977	1.963
292.417	10.000	1.977	1.963
292.467	10.000	1.976	1.965
292.517	9.475	1.975	1.966
292.567	9.142	1.975	1.968
292.618	8.362	1.974	1.971
292.668	7.505	1.973	1.978
292.719	5.250	1.972	1.983
292.769	4.377	1.972	1.992
292.819	1.646	1.971	2.002
292.869	0.000	1.971	2.012
292.919	0.000	1.970	2.017
292.969	0.000	1.969	2.017
293.020	0.000	1.969	2.013
293.070	0.000	1.968	2.004
293.120	2.333	1.968	1.996
293.179	3.083	1.967	1.986
293.229	5.876	1.967	1.978
293.279	6.950	1.966	1.971
293.330	7.807	1.966	1.965
293.380	8.917	1.965	1.962
293.431	8.627	1.965	1.962
293.481	8.039	1.964	1.963
293.531	7.703	1.964	1.963
293.581	7.891	1.964	1.963
293.631	7.758	1.963	1.963
293.682	7.564	1.963	1.963
293.732	7.697	1.962	1.963
293.783	7.316	1.962	1.964
293.833	7.261	1.962	1.965
293.883	6.886	1.962	1.965
293.933	6.905	1.961	1.965
293.983	6.928	1.961	1.965
294.033	7.020	1.961	1.966
294.084	6.276	1.961	1.967
294.134	6.434	1.961	1.968
294.185	5.956	1.960	1.969
294.236	5.672	1.960	1.969
294.287	6.166	1.960	1.970
294.336	5.629	1.960	1.970
294.387	5.687	1.960	1.970
294.437	5.874	1.960	1.970
294.488	5.676	1.960	1.970
294.538	5.935	1.960	1.969
294.594	6.177	1.960	1.968
294.645	6.345	1.960	1.968
294.695	6.107	1.960	1.968
294.745	6.129	1.960	1.968
294.796	6.347	1.960	1.967
294.847	6.636	1.960	1.967
294.897	6.415	1.961	1.967
294.947	6.843	1.961	1.967
294.997	6.625	1.961	1.968
295.048	6.094	1.961	1.967
295.098	7.112	1.961	1.968
295.148	5.995	1.962	1.967
295.199	7.152	1.962	1.966
295.249	7.221	1.962	1.968
295.300	5.872	1.962	1.967
295.349	7.497	1.963	1.968
295.400	6.655	1.963	1.967
295.450	7.182	1.963	1.968
295.500	6.547	1.964	1.968
295.551	7.409	1.964	1.967
295.601	7.437	1.965	1.968
295.651	6.814	1.965	1.968
295.702	7.494	1.965	1.969
295.752	7.075	1.966	1.968
295.802	7.633	1.966	1.968
295.852	8.000	1.967	1.968
295.902	7.459	1.967	1.969
295.953	7.449	1.968	1.970
296.003	7.235	1.968	1.969
296.053	8.135	1.969	1.970
296.104	7.808	1.970	1.969
296.154	8.257	1.970	1.970
296.204	8.061	1.971	1.971
296.254	7.739	1.971	1.971
296.304	7.874	1.972	1.972
296.355	8.083	1.973	1.972
296.405	7.962	1.973	1.973
296.455	7.781	1.974	1.975
296.506	7.165	1.975	1.976
296.556	7.885	1.976	1.977
296.606	7.386	1.976	1.978
296.656	7.281	1.977	1.981
296.706	6.396	1.978	1.981
296.756	7.596	1.979	1.982
296.806	7.172	1.979	1.982
296.857	7.730	1.980	1.981
296.906	8.289	1.981	1.981
296.956	7.997	1.982	1.982
297.006	7.712	1.983	1.982
297.056	8.666	1.984	1.982
297.106	8.582	1.984	1.982
297.156	8.564	1.985	1.982
297.206	9.069	1.986	1.982
297.256	8.731	1.987	1.983
297.306	8.979	1.988	1.985
297.355	7.708	1.989	1.987
297.405	7.980	1.990	1.989
297.455	7.647	1.991	1.991
297.506	7.079	1.992	1.994
297.556	6.727	1.992	1.996
297.606	6.983	1.993	1.998
297.656	6.654	1.994	2.001
297.706	5.674	1.995	2.001
297.757	7.365	1.996	2.002
297.807	6.846	1.997	2.000
297.858	8.591	1.998	1.998
297.908	8.803	1.999	2.000
297.958	7.700	2.000	1.998
298.008	9.200	2.001	1.999
298.058	8.684	2.002	1.996
298.107	10.000	2.003	1.997
298.158	9.093	2.004	1.998
298.208	9.483	2.005	1.998
298.258	9.815	2.006	1.999
298.306	9.213	2.007	2.000
298.357	9.576	2.008	2.001
298.407	9.247	2.009	2.004
298.458	8.047	2.010	2.006
298.508	8.353	2.011	2.012
298.559	5.678	2.012	2.016
298.610	5.800	2.013	2.022
298.660	4.338	2.014	2.022
298.710	6.551	2.015	2.024
298.761	5.725	2.016	2.023
298.810	7.474	2.017	2.021
298.861	8.105	2.018	2.020
298.911	8.639	2.019	2.017
298.961	9.745	2.020	2.015
299.012	10.000	2.021	2.012
299.061	10.000	2.022	2.011
299.112	10.000	2.023	2.013
299.162	9.617	2.024	2.013
299.212	10.000	2.025	2.015
299.262	9.610	2.026	2.017
299.312	9.018	2.027	2.022
299.363	7.553	2.028	2.026
299.413	6.790	2.029	2.031
299.463	6.061	2.030	2.035
299.514	5.754	2.031	2.041
299.563	3.896	2.032	2.041
299.614	6.463	2.032	2.040
299.664	7.221	2.033	2.038
299.714	8.173	2.034	2.034
299.765	9.878	2.035	2.030
299.815	10.000	2.036	2.025
299.866	10.000	2.037	2.023
299.916	10.000	2.038	2.024
299.966	10.000	2.038	2.025
300.016	10.000	2.039	2.026
300.067	10.000	2.040	2.028
300.118	10.000	2.041	2.029
300.169	10.000	2.042	2.032
300.219	8.838	2.042	2.035
300.268	8.701	2.043	2.040
300.320	6.871	2.044	2.043
300.370	6.866	2.045	2.048
300.421	5.932	2.045	2.050
300.471	6.552	2.046	2.052
300.521	5.902	2.047	2.051
300.572	7.650	2.048	2.049
300.622	8.562	2.048	2.047
300.672	9.270	2.049	2.044
300.722	10.000	2.049	2.042
300.772	10.000	2.050	2.040
300.823	10.000	2.051	2.042
300.873	9.213	2.051	2.044
300.922	8.584	2.052	2.044
300.975	9.435	2.052	2.047
301.024	8.271	2.053	2.047
301.075	8.913	2.053	2.052
301.125	6.332	2.054	2.053
301.175	8.176	2.054	2.053
301.226	8.392	2.055	2.052
301.276	8.668	2.055	2.055
301.326	7.053	2.056	2.054
301.377	8.554	2.056	2.056
301.426	7.575	2.056	2.054
301.477	8.944	2.057	2.054
301.527	8.495	2.057	2.054
301.578	8.747	2.057	2.055
301.628	8.088	2.058	2.055
301.678	8.724	2.058	2.055
301.729	8.449	2.058	2.056
301.778	8.025	2.059	2.055
301.828	9.243	2.059	2.057
301.878	7.391	2.059	2.055
301.929	9.488	2.059	2.056
301.980	7.787	2.059	2.056
302.030	8.838	2.060	2.058
302.080	7.425	2.060	2.057
302.131	8.413	2.060	2.059
302.180	7.504	2.060	2.056
302.231	9.390	2.060	2.058
302.281	7.524	2.060	2.055
302.331	9.930	2.060	2.059
302.382	6.442	2.060	2.057
302.431	9.347	2.060	2.059
302.482	7.249	2.060	2.056
302.532	9.362	2.060	2.060
302.581	6.479	2.060	2.057
302.632	9.119	2.060	2.060
302.682	6.617	2.060	2.057
302.734	9.525	2.059	2.060
302.784	6.479	2.059	2.057
302.834	8.974	2.059	2.061
302.884	6.066	2.059	2.059
302.934	8.292	2.059	2.061
302.985	6.623	2.059	2.060
303.035	7.788	2.058	2.060
303.085	7.141	2.058	2.059
303.135	7.986	2.058	2.059
303.185	7.201	2.057	2.057
303.235	8.624	2.057	2.056
303.286	8.020	2.057	2.056
303.336	7.490	2.056	2.056
303.387	7.919	2.056	2.056
303.437	7.381	2.056	2.056
303.487	7.420	2.055	2.056
303.538	7.708	2.055	2.056
303.588	6.964	2.054	2.056
303.638	7.121	2.054	2.056
303.688	7.015	2.053	2.056
303.738	7.296	2.053	2.056
303.789	6.728	2.052	2.056
303.839	6.934	2.052	2.056
303.889	6.304	2.051	2.058
303.939	5.437	2.051	2.056
303.989	6.754	2.050	2.056
304.041	6.292	2.049	2.054
304.091	7.402	2.049	2.052
304.142	7.509	2.048	2.049
304.192	8.167	2.047	2.047
304.242	8.548	2.047	2.046
304.293	7.746	2.046	2.044
304.343	8.321	2.045	2.044
304.393	7.717	2.045	2.045
304.443	7.046	2.044	2.048
304.494	5.222	2.043	2.048
304.544	6.339	2.042	2.049
304.595	5.405	2.042	2.050
304.645	5.361	2.041	2.049
304.695	6.236	2.040	2.045
304.745	7.500	2.039	2.043
304.795	7.591	2.038	2.039
304.846	8.880	2.038	2.035
304.896	9.001	2.037	2.031
304.947	9.834	2.036	2.032
304.998	7.739	2.035	2.031
305.048	8.207	2.034	2.034
305.098	6.401	2.033	2.035
305.149	6.355	2.032	2.039
305.199	4.338	2.031	2.040
305.249	5.322	2.031	2.041
305.299	4.612	2.030	2.038
305.350	6.479	2.029	2.036
305.401	6.804	2.028	2.031
305.451	8.129	2.027	2.028
305.501	8.587	2.026	2.020
305.551	10.000	2.025	2.015
305.601	10.000	2.024	2.014
305.652	9.753	2.023	2.014
305.702	8.659	2.022	2.015
305.753	8.143	2.021	2.018
305.803	6.572	2.020	2.020
305.853	6.179	2.019	2.023
305.904	5.152	2.018	2.026
305.954	4.538	2.017	2.029
306.004	3.229	2.016	2.029
306.055	4.453	2.015	2.029
306.105	4.639	2.014	2.021
306.155	8.665	2.013	2.013
306.205	10.000	2.012	2.009
306.255	9.631	2.011	2.001
306.306	10.000	2.010	1.995
306.355	10.000	2.009	1.993
306.406	10.000	2.008	1.993
306.456	9.816	2.007	1.994
306.507	9.491	2.006	1.994
306.556	9.357	2.005	1.997
306.607	7.556	2.004	1.999
306.658	7.733	2.003	2.004
306.709	4.768	2.002	2.009
306.759	3.812	2.001	2.016
306.810	1.516	2.000	2.021
306.860	0.678	1.999	2.023
306.910	1.519	1.998	2.021
306.961	3.446	1.997	2.017
307.011	4.699	1.996	2.011
307.061	6.652	1.995	2.002
307.111	9.064	1.994	1.995
307.161	10.000	1.993	1.984
307.212	10.000	1.992	1.978
307.262	10.000	1.991	1.975
307.313	10.000	1.990	1.973
307.363	10.000	1.989	1.974
307.413	10.000	1.989	1.974
307.464	9.951	1.988	1.975
307.514	9.712	1.987	1.977
307.564	7.916	1.986	1.979
307.615	8.144	1.985	1.984
307.665	5.169	1.984	1.988
307.715	4.871	1.983	1.994
307.766	2.796	1.982	2.000
307.815	1.567	1.982	2.005
307.866	0.189	1.981	2.005
307.916	2.517	1.980	2.003
307.966	3.203	1.979	2.000
308.017	4.511	1.978	1.994
308.067	6.663	1.978	1.986
308.117	8.531	1.977	1.979
308.167	9.493	1.976	1.974
308.218	10.000	1.975	1.967
308.268	10.000	1.975	1.965
308.318	10.000	1.974	1.962
308.368	10.000	1.973	1.962
308.418	9.478	1.973	1.961
308.468	10.000	1.972	1.961
308.519	9.494	1.971	1.962
308.569	8.987	1.971	1.964
308.620	7.783	1.970	1.965
308.670	7.979	1.969	1.968
308.720	6.700	1.969	1.971
308.771	5.899	1.968	1.974
308.821	5.187	1.968	1.977
308.871	3.915	1.967	1.983
308.921	2.255	1.967	1.988
308.971	1.313	1.966	1.990
309.022	1.435	1.966	1.990
309.072	2.883	1.965	1.989
309.122	3.117	1.965	1.984
309.172	5.415	1.964	1.980
309.221	5.858	1.964	1.976
309.271	7.119	1.964	1.970
309.321	8.222	1.963	1.964
309.372	9.544	1.963	1.962
309.422	8.361	1.963	1.961
309.473	8.488	1.962	1.963
309.523	6.239	1.962	1.964
309.573	6.647	1.962	1.963
309.623	7.580	1.961	1.964
309.673	6.565	1.961	1.964
309.724	7.304	1.961	1.962
309.774	7.799	1.961	1.964
309.824	6.471	1.961	1.964
309.875	6.967	1.961	1.964
309.924	6.750	1.960	1.964
309.974	6.867	1.960	1.964
310.024	6.856	1.960	1.965
310.075	6.077	1.960	1.965
310.125	6.779	1.960	1.966
310.175	6.063	1.960	1.965
310.226	6.843	1.960	1.966
310.276	6.205	1.960	1.966
310.326	6.282	1.960	1.967
310.377	6.236	1.960	1.966
310.426	6.977	1.960	1.965
310.477	6.796	1.960	1.966
310.527	6.306	1.960	1.966
310.577	6.403	1.960	1.965
310.628	7.148	1.961	1.966
310.678	6.220	1.961	1.966
310.728	6.849	1.961	1.967
310.778	6.377	1.961	1.966
310.828	7.274	1.961	1.965
310.878	7.135	1.962	1.965
310.928	7.065	1.962	1.966
310.979	6.552	1.962	1.966
311.029	7.197	1.963	1.967
311.079	6.553	1.963	1.967
311.130	7.020	1.963	1.967
311.180	7.294	1.964	1.967
311.231	7.248	1.964	1.966
311.281	7.529	1.964	1.966
311.331	7.489	1.965	1.965
311.382	8.163	1.965	1.966
311.432	7.488	1.966	1.965
311.482	8.240	1.966	1.966
311.532	7.694	1.967	1.967
311.582	7.477	1.967	1.967
311.632	8.174	1.968	1.968
311.682	7.573	1.968	1.967
311.732	8.277	1.969	1.968
311.782	7.878	1.969	1.970
311.832	7.287	1.970	1.969
311.883	8.453	1.971	1.972
311.932	6.743	1.971	1.972
311.984	7.564	1.972	1.974
312.034	6.779	1.972	1.974
312.084	7.894	1.973	1.976
312.136	6.771	1.974	1.976
312.186	7.862	1.975	1.976
312.236	7.684	1.975	1.976
312.286	7.965	1.976	1.976
312.336	7.728	1.977	1.976
312.387	8.533	1.977	1.976
312.437	8.241	1.978	1.976
312.487	8.728	1.979	1.976
312.537	8.762	1.980	1.977
312.587	8.148	1.981	1.977
312.637	9.032	1.981	1.979
312.687	7.902	1.982	1.979
312.737	8.465	1.983	1.980
312.788	8.518	1.984	1.982
312.838	7.779	1.985	1.984
312.887	7.745	1.986	1.984
312.937	8.199	1.987	1.985
312.987	8.251	1.987	1.986
313.038	8.120	1.988	1.987
313.089	8.114	1.989	1.988
313.140	8.302	1.990	1.988
313.190	8.355	1.991	1.989
313.241	8.231	1.992	1.989
313.291	8.609	1.993	1.990
313.341	8.542	1.994	1.991
313.391	8.410	1.995	1.991
313.441	8.995	1.996	1.992
313.491	8.410	1.997	1.994
313.542	8.361	1.998	1.995
313.593	8.109	1.999	1.996
313.643	8.359	2.000	1.998
313.694	7.989	2.001	1.999
313.744	8.045	2.002	2.001
313.794	7.985	2.003	2.001
313.844	8.510	2.004	2.002
313.894	8.060	2.005	2.001
313.946	9.550	2.006	2.002
313.996	8.665	2.007	2.000
314.046	10.000	2.008	2.002
314.097	8.313	2.009	2.001
314.146	10.000	2.010	2.002
314.196	9.084	2.011	2.002
314.246	10.000	2.012	2.003
314.298	9.641	2.013	2.004
314.348	9.632	2.014	2.005
314.398	9.833	2.015	2.007
314.448	8.928	2.016	2.008
314.499	9.657	2.017	2.012
314.548	7.535	2.018	2.012
314.599	9.655	2.019	2.016
314.649	6.797	2.020	2.016
314.700	8.947	2.021	2.021
314.750	6.213	2.022	2.019
314.800	9.724	2.023	2.020
314.850	8.224	2.024	2.017
314.900	10.000	2.025	2.022
314.951	7.018	2.026	2.018
315.001	10.000	2.027	2.020
315.050	8.638	2.027	2.020
315.101	9.564	2.028	2.020
315.151	10.000	2.029	2.019
315.201	10.000	2.030	2.019
315.251	10.000	2.031	2.023
315.301	8.534	2.032	2.019
315.352	10.000	2.033	2.023
315.402	8.892	2.034	2.022
315.453	10.000	2.035	2.030
315.503	6.118	2.036	2.024
315.552	10.000	2.036	2.029
315.603	7.601	2.037	2.033
315.652	7.626	2.038	2.033
315.703	9.443	2.039	2.032
315.753	9.670	2.040	2.031
315.803	10.000	2.041	2.036
315.854	7.417	2.041	2.031
315.904	10.000	2.042	2.034
315.954	8.854	2.043	2.036
316.004	8.870	2.044	2.042
316.054	6.320	2.044	2.037
316.105	10.000	2.045	2.041
316.155	7.535	2.046	2.043
316.205	7.473	2.046	2.043
316.254	9.168	2.047	2.041
316.305	10.000	2.048	2.044
316.355	7.596	2.048	2.042
316.405	10.000	2.049	2.041
316.456	10.000	2.050	2.039
316.506	10.000	2.050	2.045
316.556	6.506	2.051	2.047
316.607	8.255	2.051	2.044
316.657	10.000	2.052	2.045
316.708	8.916	2.053	2.048
316.757	8.137	2.053	2.050
316.807	8.001	2.054	2.045
316.858	10.000	2.054	2.048
316.909	8.130	2.055	2.047
316.960	10.000	2.055	2.049
317.010	8.337	2.055	2.045
317.061	10.000	2.056	2.045
317.111	10.000	2.056	2.048
317.161	8.688	2.057	2.050
317.212	8.447	2.057	2.051
317.262	8.619	2.057	2.047
317.312	10.000	2.058	2.053
317.363	6.696	2.058	2.052
317.414	9.619	2.058	2.055
317.464	7.330	2.058	2.051
317.514	10.000	2.059	2.052
317.566	8.796	2.059	2.053
317.615	8.735	2.059	2.055
317.666	8.007	2.059	2.056
317.716	8.407	2.059	2.054
317.766	9.859	2.060	2.055
317.817	8.325	2.060	2.054
317.867	9.629	2.060	2.056
317.918	7.962	2.060	2.054
317.969	9.888	2.060	2.057
318.019	6.976	2.060	2.054
318.069	10.000	2.060	2.056
318.120	7.571	2.060	2.054
318.170	10.000	2.060	2.056
318.220	7.524	2.060	2.054
318.270	9.716	2.060	2.056
318.320	8.131	2.060	2.053
318.371	10.000	2.060	2.056
318.421	7.227	2.060	2.053
318.472	10.000	2.059	2.055
318.521	7.654	2.059	2.053
318.572	9.887	2.059	2.056
318.622	7.191	2.059	2.054
318.672	9.286	2.059	2.056
318.723	7.423	2.058	2.055
318.773	9.105	2.058	2.057
318.824	6.849	2.058	2.055
318.875	9.342	2.058	2.057
318.925	6.884	2.057	2.055
318.975	9.086	2.057	2.056
319.025	7.120	2.057	2.055
319.075	8.664	2.056	2.056
319.126	6.770	2.056	2.056
319.176	7.836	2.055	2.056
319.227	7.480	2.055	2.056
319.278	7.573	2.054	2.056
319.328	6.954	2.054	2.056
319.378	7.109	2.053	2.056
319.428	6.806	2.053	2.055
319.478	7.605	2.052	2.054
319.529	7.545	2.052	2.054
319.579	7.435	2.051	2.052
319.629	8.029	2.051	2.052
319.680	7.445	2.050	2.052
319.730	6.799	2.050	2.051
319.779	7.525	2.049	2.052
319.829	6.798	2.048	2.051
319.880	7.173	2.048	2.051
319.930	6.778	2.047	2.051
319.980	6.830	2.046	2.051
320.031	6.359	2.046	2.050
320.081	6.728	2.045	2.051
320.130	5.923	2.044	2.049
320.181	6.994	2.043	2.049
320.231	6.590	2.043	2.048
320.282	6.360	2.042	2.047
320.332	7.046	2.041	2.045
320.382	7.208	2.040	2.043
320.433	7.543	2.040	2.041
320.483	7.781	2.039	2.039
320.533	8.392	2.038	2.038
320.583	7.375	2.037	2.037
320.634	7.645	2.036	2.039
320.684	6.110	2.035	2.039
320.733	6.586	2.035	2.040
320.784	5.631	2.034	2.041
320.835	5.569	2.033	2.039
320.884	6.830	2.032	2.039
320.935	6.036	2.031	2.035
320.984	7.901	2.030	2.035
321.035	6.056	2.029	2.034
321.084	6.590	2.028	2.032
321.135	7.345	2.027	2.031
321.184	7.055	2.026	2.029
321.235	7.675	2.025	2.026
321.285	8.345	2.024	2.025
321.335	7.369	2.023	2.023
321.386	8.065	2.022	2.023
321.436	6.908	2.021	2.025
321.486	6.060	2.020	2.025
321.537	6.377	2.019	2.025
321.587	5.982	2.018	2.025
321.638	5.908	2.017	2.024
321.688	6.097	2.016	2.023
321.738	6.220	2.015	2.023
321.789	6.009	2.014	2.020
321.840	6.897	2.013	2.018
321.890	7.363	2.012	2.017
321.940	6.706	2.011	2.014
321.990	7.676	2.010	2.013
322.040	7.020	2.009	2.012
322.090	7.209	2.008	2.012
322.140	6.683	2.007	2.012
322.192	6.345	2.006	2.013
322.242	5.559	2.005	2.013
322.292	5.749	2.004	2.012
322.343	5.738	2.003	2.010
322.392	6.602	2.002	2.010
322.443	5.989	2.001	2.007
322.494	6.881	2.000	2.005
322.544	6.963	1.999	2.004
322.595	6.946	1.998	2.002
322.645	7.286	1.997	2.002
322.695	6.313	1.997	2.002
322.745	6.122	1.996	2.001
322.794	6.529	1.995	2.001
322.845	5.745	1.994	2.002
322.895	5.099	1.993	2.001
322.947	6.246	1.992	2.002
322.997	4.850	1.991	2.000
323.047	5.838	1.990	2.000
323.097	5.526	1.989	1.998
323.147	6.257	1.988	1.998
323.198	5.295	1.987	1.996
323.248	5.899	1.986	1.995
323.298	5.986	1.985	1.992
323.349	7.024	1.985	1.991
323.398	6.502	1.984	1.990
323.449	6.186	1.983	1.989
323.499	6.157	1.982	1.989
323.549	6.320	1.981	1.987
323.600	6.538	1.980	1.987
323.651	6.253	1.980	1.988
323.701	5.258	1.979	1.987
323.751	5.691	1.978	1.988
323.802	5.216	1.977	1.989
323.852	4.610	1.976	1.987
323.902	5.637	1.976	1.986
323.952	5.560	1.975	1.986
324.003	5.221	1.974	1.985
324.054	5.340	1.974	1.986
324.103	4.757	1.973	1.983
324.154	6.299	1.972	1.982
324.204	5.543	1.972	1.981
324.254	5.940	1.971	1.980
324.305	5.876	1.970	1.978
324.355	6.353	1.970	1.977
324.406	6.358	1.969	1.977
324.456	5.934	1.969	1.976
324.506	5.893	1.968	1.977
324.556	5.271	1.967	1.977
324.607	5.237	1.967	1.978
324.657	5.073	1.966	1.976
324.708	6.458	1.966	1.976
324.759	5.090	1.965	1.976
324.809	5.065	1.965	1.977
324.859	4.723	1.965	1.976
324.909	5.491	1.964	1.976
324.959	5.027	1.964	1.976
325.010	5.340	1.963	1.976
325.060	4.823	1.963	1.976
325.111	5.082	1.963	1.974
325.161	5.676	1.962	1.974
325.211	5.101	1.962	1.974
325.261	5.050	1.962	1.973
325.311	5.589	1.962	1.972
325.361	6.131	1.961	1.972
325.411	5.247	1.961	1.971
325.461	5.928	1.961	1.971
325.511	5.702	1.961	1.970
325.561	5.740	1.961	1.971
325.611	5.392	1.960	1.969
325.660	6.691	1.960	1.969
325.710	5.880	1.960	1.968
325.759	6.265	1.960	1.969
325.810	5.608	1.960	1.969
325.860	5.665	1.960	1.969
325.912	5.796	1.960	1.968
325.964	6.183	1.960	1.968
326.013	5.942	1.960	1.969
326.063	5.370	1.960	1.968
326.113	6.754	1.960	1.968
326.165	5.746	1.960	1.968
326.216	6.408	1.960	1.969
326.268	5.614	1.960	1.968
326.318	6.414	1.961	1.969
326.368	5.801	1.961	1.969
326.419	6.104	1.961	1.969
326.468	5.952	1.961	1.969
326.519	6.135	1.961	1.968
326.569	6.774	1.962	1.968
326.619	6.637	1.962	1.968
326.670	6.378	1.962	1.968
326.719	6.372	1.962	1.968
326.769	6.769	1.963	1.969
326.819	6.322	1.963	1.969
326.869	6.464	1.963	1.969
326.919	6.870	1.964	1.969
326.969	6.629	1.964	1.969
327.020	7.041	1.965	1.969
327.070	6.811	1.965	1.970
327.120	6.646	1.965	1.969
327.170	7.395	1.966	1.969
327.220	7.433	1.966	1.968
327.270	7.604	1.967	1.968
327.319	7.780	1.967	1.969
327.370	7.184	1.968	1.969
327.419	7.681	1.968	1.970
327.469	7.411	1.969	1.970
327.519	7.794	1.970	1.971
327.570	7.345	1.970	1.970
327.620	8.442	1.971	1.971
327.670	7.209	1.971	1.971
327.721	8.190	1.972	1.973
327.770	7.011	1.973	1.974
327.821	7.374	1.973	1.975
327.870	7.502	1.974	1.975
327.920	7.719	1.975	1.976
327.970	7.218	1.976	1.977
328.020	7.500	1.976	1.978
328.071	7.147	1.977	1.981
328.121	6.252	1.978	1.979
328.171	8.623	1.979	1.980
328.220	7.012	1.979	1.979
328.271	8.614	1.980	1.980
328.322	7.696	1.981	1.981
328.371	7.849	1.982	1.979
328.422	9.060	1.983	1.979
328.472	9.114	1.984	1.979
328.523	8.649	1.984	1.978
328.573	9.668	1.985	1.982
328.623	7.506	1.986	1.979
328.674	10.000	1.987	1.982
328.723	8.046	1.988	1.982
328.774	9.297	1.989	1.986
328.824	7.337	1.990	1.985
328.875	9.538	1.991	1.989
328.926	6.652	1.992	1.988
328.976	9.214	1.993	1.991
329.026	7.064	1.993	1.990
329.076	9.143	1.994	1.995
329.125	5.975	1.995	1.994
329.176	9.128	1.996	1.998
329.226	6.148	1.997	1.995
329.277	9.581	1.998	1.998
329.328	7.414	1.999	1.996
329.378	9.481	2.000	1.996
329.428	8.834	2.001	1.996
329.478	9.555	2.002	2.000
329.528	7.153	2.003	1.997
329.579	10.000	2.004	2.000
329.630	8.232	2.005	1.999
329.680	9.717	2.006	2.002
329.730	7.512	2.007	2.002
329.781	9.726	2.008	2.004
329.831	7.789	2.009	2.002
329.881	10.000	2.010	2.005
329.931	7.997	2.011	2.004
329.982	10.000	2.012	2.008
330.032	7.298	2.013	2.007
330.083	9.771	2.014	2.010
330.134	7.859	2.015	2.009
330.183	10.000	2.016	2.011
330.234	8.382	2.017	2.012
330.284	8.888	2.018	2.015
330.335	7.553	2.019	2.019
330.385	6.877	2.020	2.021
330.437	6.988	2.021	2.023
330.487	7.205	2.022	2.024
330.536	7.648	2.023	2.023
330.585	8.693	2.024	2.022
330.636	9.067	2.025	2.020
330.686	9.653	2.026	2.020
330.737	9.710	2.027	2.018
330.787	10.000	2.028	2.019
330.837	9.372	2.029	2.019
330.886	10.000	2.030	2.020
330.936	9.930	2.031	2.021
330.986	9.785	2.032	2.022
331.036	9.378	2.033	2.024
331.087	9.439	2.033	2.026
331.138	8.971	2.034	2.027
331.188	8.932	2.035	2.031
331.239	7.251	2.036	2.034
331.290	7.731	2.037	2.036
331.339	7.201	2.038	2.040
331.390	6.501	2.039	2.042
331.440	6.373	2.039	2.043
331.490	6.983	2.040	2.043
331.541	7.530	2.041	2.044
331.591	6.899	2.042	2.042
331.641	8.738	2.043	2.042
331.692	8.491	2.043	2.041
331.741	8.772	2.044	2.039
331.792	9.998	2.045	2.039
331.842	9.439	2.046	2.035
331.892	10.000	2.046	2.037
331.944	9.084	2.047	2.038
331.994	9.388	2.048	2.041
332.044	8.539	2.048	2.042
332.095	8.997	2.049	2.046
332.145	6.767	2.050	2.047
332.196	7.935	2.050	2.049
332.246	7.386	2.051	2.050
332.298	8.089	2.051	2.050
332.350	7.943	2.052	2.051
332.401	7.911	2.052	2.051
332.451	8.459	2.053	2.052
332.501	7.838	2.053	2.051
332.552	8.899	2.054	2.051
332.602	8.604	2.054	2.050
332.652	9.078	2.055	2.050
332.702	8.703	2.055	2.049
332.752	9.691	2.056	2.051
332.802	8.268	2.056	2.049
332.852	10.000	2.056	2.050
332.902	8.479	2.057	2.051
332.953	8.991	2.057	2.052
333.004	8.214	2.058	2.053
333.055	8.714	2.058	2.054
333.105	8.306	2.058	2.055
333.155	7.766	2.058	2.056
333.205	8.263	2.059	2.056
333.255	7.846	2.059	2.057
333.306	7.885	2.059	2.056
333.356	8.560	2.059	2.056
333.406	8.521	2.059	2.057
333.457	8.028	2.060	2.057
333.507	8.300	2.060	2.057
333.557	8.314	2.060	2.057
333.607	8.129	2.060	2.057
333.657	8.460	2.060	2.057
333.708	7.946	2.060	2.057
333.758	8.589	2.060	2.058
333.808	7.542	2.060	2.058
333.859	7.858	2.060	2.058
333.909	8.362	2.060	2.058
333.958	7.885	2.060	2.057
334.008	8.581	2.060	2.058
334.059	7.586	2.060	2.057
334.110	8.708	2.060	2.058
334.160	7.577	2.059	2.058
334.210	7.734	2.059	2.058
334.260	7.821	2.059	2.057
334.310	8.360	2.059	2.058
334.360	7.334	2.059	2.057
334.410	8.060	2.058	2.057
334.461	7.741	2.058	2.057
334.511	7.678	2.058	2.058
334.561	7.417	2.058	2.057
334.612	7.861	2.057	2.057
334.662	7.532	2.057	2.055
334.711	9.039	2.057	2.054
334.762	8.280	2.056	2.054
334.813	7.747	2.056	2.055
334.864	7.591	2.055	2.053
334.914	8.408	2.055	2.055
334.964	7.011	2.055	2.052
335.015	9.164	2.054	2.054
335.064	6.531	2.054	2.049
335.115	10.000	2.053	2.053
335.165	6.008	2.053	2.050
335.216	9.058	2.052	2.052
335.266	6.623	2.052	2.051
335.317	7.860	2.051	2.050
335.367	7.940	2.050	2.048
335.417	8.595	2.050	2.050
335.467	6.710	2.049	2.047
335.518	8.574	2.049	2.047
335.568	7.547	2.048	2.046
335.618	8.385	2.047	2.046
335.669	7.206	2.047	2.046
335.717	7.724	2.046	2.046
335.769	6.920	2.045	2.047
335.819	6.826	2.044	2.046
335.868	7.398	2.044	2.046
335.919	6.642	2.043	2.046
335.969	6.816	2.042	2.045
336.020	7.100	2.041	2.044
336.070	6.945	2.041	2.043
336.119	7.117	2.040	2.043
336.169	6.747	2.039	2.042
336.220	7.214	2.038	2.040
336.270	7.704	2.037	2.041
336.320	6.164	2.037	2.039
336.371	7.145	2.036	2.038
336.421	7.238	2.035	2.039
336.471	6.148	2.034	2.036
336.522	7.572	2.033	2.035
336.571	7.093	2.032	2.035
336.622	6.699	2.031	2.035
336.672	6.580	2.030	2.035
336.723	6.066	2.029	2.035
336.774	5.807	2.028	2.034
336.823	6.736	2.028	2.033
336.873	6.075	2.027	2.032
336.924	6.518	2.026	2.031
336.974	6.399	2.025	2.030
337.024	6.594	2.024	2.029
337.074	6.657	2.023	2.027
337.124	6.720	2.022	2.027
337.174	6.392	2.021	2.027
337.224	5.933	2.020	2.026
337.275	5.922	2.019	2.024
337.324	6.785	2.018	2.023
337.375	6.361	2.017	2.022
337.425	6.363	2.016	2.023
337.476	5.574	2.015	2.021
337.526	6.671	2.014	2.020
337.576	5.884	2.013	2.020
337.627	5.932	2.012	2.019
337.678	6.049	2.011	2.017
337.727	6.259	2.010	2.017
337.778	5.715	2.009	2.016
337.827	6.379	2.008	2.014
337.878	6.280	2.007	2.014
337.928	5.569	2.006	2.013
337.978	5.954	2.005	2.013
338.029	5.359	2.004	2.010
338.078	6.944	2.003	2.010
338.129	5.547	2.002	2.009
338.179	6.130	2.001	2.007
338.229	6.779	2.000	2.007
338.280	5.669	1.999	2.006
338.330	5.864	1.998	2.005
338.380	5.800	1.997	2.004
338.430	6.323	1.996	2.004
338.481	5.285	1.995	2.003
338.531	5.808	1.994	2.003
338.581	5.034	1.993	2.002
338.632	6.128	1.992	2.001
338.683	5.751	1.991	2.000
338.733	5.380	1.990	1.998
338.782	6.654	1.989	1.997
338.832	5.997	1.989	1.996
338.883	5.617	1.988	1.995
338.933	6.289	1.987	1.995
338.983	5.269	1.986	1.994
339.034	5.994	1.985	1.994
339.084	4.923	1.984	1.994
339.134	5.405	1.983	1.993
339.184	5.369	1.982	1.992
339.234	5.335	1.982	1.991
339.285	5.873	1.981	1.989
339.335	5.857	1.980	1.988
339.386	5.948	1.979	1.987
339.437	5.859	1.978	1.986
339.487	6.107	1.978	1.985
339.537	5.829	1.977	1.984
339.587	6.009	1.976	1.984
339.637	5.867	1.975	1.983
339.688	6.043	1.975	1.981
339.738	6.305	1.974	1.982
339.788	5.261	1.973	1.983
339.839	4.810	1.973	1.983
339.889	5.260	1.972	1.983
339.939	4.810	1.971	1.982
339.989	5.600	1.971	1.982
340.039	4.766	1.970	1.981
340.090	5.356	1.969	1.981
340.140	4.862	1.969	1.981
340.190	4.949	1.968	1.980
340.241	5.290	1.968	1.979
340.291	5.196	1.967	1.978
340.341	5.619	1.967	1.976
340.391	5.785	1.966	1.976
340.442	5.751	1.966	1.975
340.492	5.672	1.965	1.974
340.542	5.720	1.965	1.974
340.593	5.572	1.964	1.974
340.643	5.564	1.964	1.973
340.693	5.753	1.964	1.973
340.743	5.620	1.963	1.973
340.794	5.232	1.963	1.974
340.845	4.913	1.963	1.972
340.895	5.893	1.962	1.973
340.945	4.930	1.962	1.972
340.996	5.718	1.962	1.973
341.046	4.705	1.961	1.974
341.096	4.664	1.961	1.973
341.148	5.266	1.961	1.973
341.198	5.179	1.961	1.971
341.248	5.800	1.961	1.970
341.299	5.833	1.960	1.971
341.349	5.039	1.960	1.969
341.399	6.259	1.960	1.970
341.449	5.011	1.960	1.969
341.499	5.978	1.960	1.969
341.550	5.584	1.960	1.969
341.601	5.583	1.960	1.970
341.651	5.392	1.960	1.970
341.701	5.335	1.960	1.968
341.750	6.466	1.960	1.969
341.801	5.626	1.960	1.969
341.851	5.773	1.960	1.969
341.902	5.798	1.960	1.969
341.952	5.826	1.960	1.968
342.002	6.054	1.960	1.968
342.053	5.960	1.961	1.969
342.102	5.604	1.961	1.969
342.153	5.914	1.961	1.967
342.203	6.938	1.961	1.968
342.253	5.950	1.961	1.968
342.304	6.460	1.962	1.968
342.354	6.197	1.962	1.968
342.405	6.393	1.962	1.968
342.455	6.460	1.963	1.968
342.505	6.337	1.963	1.968
342.555	6.542	1.963	1.969
342.605	6.036	1.964	1.969
342.655	6.704	1.964	1.969
342.706	6.469	1.964	1.969
342.756	6.882	1.965	1.969
342.807	7.040	1.965	1.969
342.857	7.011	1.966	1.968
342.907	7.697	1.966	1.969
342.957	6.827	1.967	1.968
343.007	7.716	1.967	1.969
343.059	7.001	1.968	1.969
343.109	7.687	1.968	1.969
343.159	7.480	1.969	1.969
343.210	7.735	1.969	1.968
343.260	8.251	1.970	1.968
343.310	8.119	1.971	1.969
343.360	8.056	1.971	1.971
343.410	6.955	1.972	1.971
343.461	8.005	1.973	1.970
343.511	8.537	1.973	1.971
343.561	8.225	1.974	1.971
343.612	8.312	1.975	1.973
343.661	7.597	1.975	1.973
343.713	8.228	1.976	1.974
343.763	8.118	1.977	1.975
343.813	7.560	1.978	1.976
343.864	7.795	1.978	1.977
343.914	7.559	1.979	1.978
343.964	7.853	1.980	1.980
344.015	7.127	1.981	1.982
344.064	6.672	1.982	1.982
344.115	7.968	1.982	1.985
344.166	6.475	1.983	1.985
344.216	7.279	1.984	1.986
344.267	7.334	1.985	1.987
344.317	7.377	1.986	1.986
344.367	8.012	1.987	1.986
344.417	8.064	1.988	1.987
344.467	8.053	1.989	1.985
344.518	9.143	1.989	1.986
344.568	8.430	1.990	1.984
344.618	10.000	1.991	1.986
344.669	8.117	1.992	1.983
344.719	10.000	1.993	1.988
344.768	7.208	1.994	1.986
344.818	10.000	1.995	1.988
344.869	8.631	1.996	1.986
344.919	10.000	1.997	1.989
344.969	8.166	1.998	1.988
345.020	10.000	1.999	1.989
345.070	9.155	2.000	1.989
345.120	10.000	2.001	1.990
345.170	9.622	2.002	1.991
345.220	9.954	2.003	1.992
345.271	10.000	2.004	1.994
345.321	8.932	2.005	1.997
345.371	8.614	2.006	2.002
345.422	7.164	2.007	2.004
345.472	7.394	2.008	2.008
345.522	6.424	2.009	2.012
345.572	6.038	2.010	2.014
345.622	6.497	2.011	2.014
345.673	7.674	2.012	2.014
345.723	7.355	2.013	2.011
345.774	9.745	2.014	2.010
345.824	9.255	2.015	2.008
345.875	10.000	2.016	2.007
345.925	10.000	2.017	2.008
345.975	9.663	2.018	2.008
346.026	10.000	2.019	2.009
346.076	9.347	2.020	2.010
346.126	9.999	2.021	2.011
346.176	9.545	2.022	2.012
346.227	9.493	2.023	2.013
346.277	9.611	2.024	2.014
346.327	9.998	2.025	2.013
346.377	10.000	2.026	2.015
346.428	9.615	2.027	2.015
346.478	10.000	2.028	2.016
346.528	10.000	2.029	2.016
346.579	10.000	2.030	2.018
346.629	9.569	2.030	2.019
346.679	10.000	2.031	2.019
346.729	10.000	2.032	2.021
346.779	9.458	2.033	2.024
346.829	8.852	2.034	2.026
346.879	8.895	2.035	2.029
346.930	8.309	2.036	2.031
346.980	8.131	2.037	2.033
347.029	7.818	2.037	2.035
347.081	7.586	2.038	2.036
347.131	8.036	2.039	2.036
347.181	8.770	2.040	2.037
347.233	8.431	2.041	2.035
347.283	9.613	2.042	2.035
347.333	9.243	2.042	2.034
347.384	9.972	2.043	2.034
347.434	9.735	2.044	2.033
347.485	10.000	2.045	2.035
347.535	9.436	2.045	2.035
347.585	9.703	2.046	2.037
347.635	9.122	2.047	2.035
347.683	10.000	2.047	2.038
347.734	8.994	2.048	2.039
347.784	9.244	2.049	2.042
347.834	8.324	2.049	2.042
347.884	9.287	2.050	2.046
347.935	7.223	2.050	2.047
347.985	8.083	2.051	2.051
348.034	6.531	2.052	2.052
348.085	7.519	2.052	2.054
348.134	6.613	2.053	2.053
348.185	8.025	2.053	2.053
348.235	8.253	2.054	2.052
348.286	8.276	2.054	2.052
348.337	8.235	2.055	2.051
348.388	9.089	2.055	2.051
348.437	8.853	2.056	2.050
348.488	9.182	2.056	2.050
348.537	8.799	2.056	2.050
348.588	9.386	2.057	2.053
348.638	7.438	2.057	2.052
348.688	8.864	2.057	2.056
348.739	6.864	2.058	2.057
348.789	7.410	2.058	2.058
348.839	7.196	2.058	2.059
348.890	7.375	2.059	2.059
348.940	7.669	2.059	2.058
348.991	7.897	2.059	2.058
349.041	8.191	2.059	2.058
349.092	7.766	2.059	2.057
349.142	8.307	2.059	2.057
349.192	8.066	2.060	2.058
349.242	7.886	2.060	2.056
349.292	9.004	2.060	2.056
349.343	8.554	2.060	2.055
349.393	9.016	2.060	2.056
349.443	7.845	2.060	2.056
349.494	8.361	2.060	2.056
349.544	8.352	2.060	2.056
349.594	8.145	2.060	2.057
349.644	7.673	2.060	2.058
349.694	7.652	2.060	2.059
349.745	7.501	2.060	2.057
349.795	8.898	2.060	2.058
349.845	7.109	2.060	2.057
349.896	8.492	2.059	2.057
349.945	7.942	2.059	2.057
349.995	7.898	2.059	2.058
350.045	7.264	2.059	2.057
350.095	8.187	2.059	2.058
350.146	7.354	2.058	2.057
350.196	7.743	2.058	2.056
350.247	8.318	2.058	2.056
350.297	7.740	2.057	2.058
350.347	6.692	2.057	2.056
350.397	8.048	2.057	2.057
350.447	7.057	2.056	2.056
350.497	7.625	2.056	2.056
350.547	7.473	2.056	2.057
350.598	6.865	2.055	2.055
350.648	8.002	2.055	2.056
350.698	6.668	2.054	2.055
350.748	7.933	2.054	2.056
350.798	6.397	2.053	2.056
350.849	6.614	2.053	2.055
350.899	7.410	2.052	2.055
350.949	6.775	2.052	2.054
351.000	7.232	2.051	2.053
351.049	7.323	2.051	2.053
351.099	6.612	2.050	2.053
351.150	6.990	2.050	2.051
351.200	7.384	2.049	2.050
351.251	7.305	2.048	2.050
351.301	6.980	2.048	2.049
351.352	7.285	2.047	2.049
351.402	6.955	2.046	2.049
351.452	6.679	2.046	2.048
351.502	6.921	2.045	2.048
351.552	6.705	2.044	2.049
351.603	5.839	2.043	2.047
351.653	7.041	2.043	2.046
351.703	7.012	2.042	2.044
351.754	7.483	2.041	2.042
351.804	7.529	2.040	2.041
351.854	7.494	2.039	2.041
351.905	6.995	2.039	2.039
351.955	7.673	2.038	2.039
352.006	6.654	2.037	2.039
352.056	6.607	2.036	2.040
352.106	6.235	2.035	2.040
352.157	5.990	2.034	2.040
352.206	5.940	2.033	2.039
352.256	6.343	2.033	2.039
352.307	5.957	2.032	2.038
352.357	6.033	2.031	2.037
352.407	6.170	2.030	2.035
352.457	6.567	2.029	2.032
352.506	7.708	2.028	2.028
352.557	8.497	2.027	2.026
352.607	7.946	2.026	2.024
352.658	8.511	2.025	2.024
352.708	7.102	2.024	2.024
352.758	7.037	2.023	2.024
352.809	6.837	2.022	2.025
352.858	5.853	2.021	2.026
352.908	5.990	2.020	2.028
352.959	4.568	2.019	2.026
353.011	6.204	2.018	2.026
353.063	5.559	2.017	2.025
353.114	5.806	2.016	2.023
353.164	6.393	2.015	2.022
353.214	5.996	2.014	2.018
353.264	7.746	2.013	2.017
353.314	6.374	2.012	2.015
353.365	7.256	2.011	2.015
353.415	6.162	2.010	2.009
353.465	9.822	2.009	2.010
353.518	6.473	2.008	2.005
353.569	9.349	2.007	2.009
353.619	5.217	2.006	2.005
353.668	8.629	2.005	2.008
353.719	5.233	2.004	2.007
353.768	6.582	2.003	2.009
353.818	5.142	2.002	2.010
353.869	5.013	2.001	2.010
353.921	5.000	2.000	2.009
353.973	5.871	1.999	2.007
354.025	5.803	1.998	2.007
354.076	5.490	1.997	2.004
354.126	6.603	1.996	2.004
354.177	5.367	1.995	2.001
354.227	7.128	1.994	1.999
354.277	6.615	1.993	1.998
354.327	6.754	1.992	1.997
354.376	6.515	1.992	1.996
354.427	6.315	1.991	1.996
354.478	5.682	1.990	1.995
354.527	6.424	1.989	1.995
354.579	5.517	1.988	1.996
354.629	4.880	1.987	1.996
354.679	5.290	1.986	1.995
354.731	5.550	1.985	1.995
354.780	5.205	1.984	1.992
354.830	6.465	1.983	1.992
354.880	5.453	1.983	1.990
354.930	6.134	1.982	1.989
354.981	6.090	1.981	1.988
355.031	6.201	1.980	1.987
355.082	5.907	1.979	1.986
355.131	5.897	1.979	1.986
355.181	5.871	1.978	1.986
355.232	5.266	1.977	1.985
355.281	5.646	1.976	1.984
355.332	5.813	1.976	1.984
355.382	5.485	1.975	1.983
355.433	5.793	1.974	1.982
355.484	5.851	1.973	1.981
355.532	5.744	1.973	1.982
355.583	4.764	1.972	1.982
355.633	5.217	1.971	1.981
355.684	5.733	1.971	1.980
355.736	5.670	1.970	1.979
355.786	5.765	1.970	1.977
355.837	6.224	1.969	1.977
355.887	5.478	1.968	1.976
355.937	5.764	1.968	1.976
355.987	5.402	1.967	1.976
356.037	5.694	1.967	1.977
356.087	4.754	1.966	1.976
356.138	5.629	1.966	1.975
356.188	5.940	1.965	1.975
356.238	5.141	1.965	1.974
356.288	5.777	1.964	1.974
356.338	5.310	1.964	1.975
356.388	4.847	1.964	1.974
356.438	5.429	1.963	1.972
356.488	6.069	1.963	1.971
356.539	5.950	1.963	1.972
356.588	4.913	1.962	1.972
356.637	5.654	1.962	1.972
356.688	5.338	1.962	1.971
356.739	5.484	1.962	1.971
356.788	5.514	1.961	1.971
356.838	5.538	1.961	1.970
356.888	5.960	1.961	1.970
356.938	5.542	1.961	1.969
356.991	5.892	1.961	1.969
357.042	5.622	1.960	1.970
357.091	5.209	1.960	1.969
357.142	5.846	1.960	1.970
357.192	5.191	1.960	1.968
357.243	6.216	1.960	1.969
357.294	5.127	1.960	1.969
357.345	5.898	1.960	1.969
357.395	5.259	1.960	1.968
357.446	6.301	1.960	1.969
357.495	5.410	1.960	1.969
357.546	5.695	1.960	1.967
357.596	6.694	1.960	1.967
357.647	6.072	1.960	1.967
357.697	6.299	1.960	1.967
357.746	6.005	1.961	1.968
357.797	5.793	1.961	1.967
357.847	6.677	1.961	1.968
